
     ######################################################################
   ##########################################################################
  ###                                                                      ###
 ###            Tinker  ---  Software Tools for Molecular Design            ###
 ##                                                                          ##
 ##                      Version 8.10.2   February 2022                      ##
 ##                                                                          ##
 ##               Copyright (c)  Jay William Ponder  1990-2022               ##
 ###                           All Rights Reserved                          ###
  ###                                                                      ###
   ##########################################################################
     ######################################################################


 Number of Coordinate Frames :           401
 Number of Distance Bins :              2338

 Reading the Coordinates Archive File :

    Processing Coordinate Frame          100
    Processing Coordinate Frame          200
    Processing Coordinate Frame          300
    Processing Coordinate Frame          400
    Processing Coordinate Frame          401

 Pairwise Radial Distribution Function :

       First Name or Type :  77         Second Name or Type :  77    

     Bin         Counts       Distance       Raw g(r)    Smooth g(r)

       1              0         0.0050         0.0000         0.0000
       2              0         0.0150         0.0000         0.0000
       3              0         0.0250         0.0000         0.0000
       4              0         0.0350         0.0000         0.0000
       5              0         0.0450         0.0000         0.0000
       6              0         0.0550         0.0000         0.0000
       7              0         0.0650         0.0000         0.0000
       8              0         0.0750         0.0000         0.0000
       9              0         0.0850         0.0000         0.0000
      10              0         0.0950         0.0000         0.0000
      11              0         0.1050         0.0000         0.0000
      12              0         0.1150         0.0000         0.0000
      13              0         0.1250         0.0000         0.0000
      14              0         0.1350         0.0000         0.0000
      15              0         0.1450         0.0000         0.0000
      16              0         0.1550         0.0000         0.0000
      17              0         0.1650         0.0000         0.0000
      18              0         0.1750         0.0000         0.0000
      19              0         0.1850         0.0000         0.0000
      20              0         0.1950         0.0000         0.0000
      21              0         0.2050         0.0000         0.0000
      22              0         0.2150         0.0000         0.0000
      23              0         0.2250         0.0000         0.0000
      24              0         0.2350         0.0000         0.0000
      25              0         0.2450         0.0000         0.0000
      26              0         0.2550         0.0000         0.0000
      27              0         0.2650         0.0000         0.0000
      28              0         0.2750         0.0000         0.0000
      29              0         0.2850         0.0000         0.0000
      30              0         0.2950         0.0000         0.0000
      31              0         0.3050         0.0000         0.0000
      32              0         0.3150         0.0000         0.0000
      33              0         0.3250         0.0000         0.0000
      34              0         0.3350         0.0000         0.0000
      35              0         0.3450         0.0000         0.0000
      36              0         0.3550         0.0000         0.0000
      37              0         0.3650         0.0000         0.0000
      38              0         0.3750         0.0000         0.0000
      39              0         0.3850         0.0000         0.0000
      40              0         0.3950         0.0000         0.0000
      41              0         0.4050         0.0000         0.0000
      42              0         0.4150         0.0000         0.0000
      43              0         0.4250         0.0000         0.0000
      44              0         0.4350         0.0000         0.0000
      45              0         0.4450         0.0000         0.0000
      46              0         0.4550         0.0000         0.0000
      47              0         0.4650         0.0000         0.0000
      48              0         0.4750         0.0000         0.0000
      49              0         0.4850         0.0000         0.0000
      50              0         0.4950         0.0000         0.0000
      51              0         0.5050         0.0000         0.0000
      52              0         0.5150         0.0000         0.0000
      53              0         0.5250         0.0000         0.0000
      54              0         0.5350         0.0000         0.0000
      55              0         0.5450         0.0000         0.0000
      56              0         0.5550         0.0000         0.0000
      57              0         0.5650         0.0000         0.0000
      58              0         0.5750         0.0000         0.0000
      59              0         0.5850         0.0000         0.0000
      60              0         0.5950         0.0000         0.0000
      61              0         0.6050         0.0000         0.0000
      62              0         0.6150         0.0000         0.0000
      63              0         0.6250         0.0000         0.0000
      64              0         0.6350         0.0000         0.0000
      65              0         0.6450         0.0000         0.0000
      66              0         0.6550         0.0000         0.0000
      67              0         0.6650         0.0000         0.0000
      68              0         0.6750         0.0000         0.0000
      69              0         0.6850         0.0000         0.0000
      70              0         0.6950         0.0000         0.0000
      71              0         0.7050         0.0000         0.0000
      72              0         0.7150         0.0000         0.0000
      73              0         0.7250         0.0000         0.0000
      74              0         0.7350         0.0000         0.0000
      75              0         0.7450         0.0000         0.0000
      76              0         0.7550         0.0000         0.0000
      77              0         0.7650         0.0000         0.0000
      78              0         0.7750         0.0000         0.0000
      79              0         0.7850         0.0000         0.0000
      80              0         0.7950         0.0000         0.0000
      81              0         0.8050         0.0000         0.0000
      82              0         0.8150         0.0000         0.0000
      83              0         0.8250         0.0000         0.0000
      84              0         0.8350         0.0000         0.0000
      85              0         0.8450         0.0000         0.0000
      86              0         0.8550         0.0000         0.0000
      87              0         0.8650         0.0000         0.0000
      88              0         0.8750         0.0000         0.0000
      89              0         0.8850         0.0000         0.0000
      90              0         0.8950         0.0000         0.0000
      91              0         0.9050         0.0000         0.0000
      92              0         0.9150         0.0000         0.0000
      93              0         0.9250         0.0000         0.0000
      94              0         0.9350         0.0000         0.0000
      95              0         0.9450         0.0000         0.0000
      96              0         0.9550         0.0000         0.0000
      97              0         0.9650         0.0000         0.0000
      98              0         0.9750         0.0000         0.0000
      99              0         0.9850         0.0000         0.0000
     100              0         0.9950         0.0000         0.0000
     101              0         1.0050         0.0000         0.0000
     102              0         1.0150         0.0000         0.0000
     103              0         1.0250         0.0000         0.0000
     104              0         1.0350         0.0000         0.0000
     105              0         1.0450         0.0000         0.0000
     106              0         1.0550         0.0000         0.0000
     107              0         1.0650         0.0000         0.0000
     108              0         1.0750         0.0000         0.0000
     109              0         1.0850         0.0000         0.0000
     110              0         1.0950         0.0000         0.0000
     111              0         1.1050         0.0000         0.0000
     112              0         1.1150         0.0000         0.0000
     113              0         1.1250         0.0000         0.0000
     114              0         1.1350         0.0000         0.0000
     115              0         1.1450         0.0000         0.0000
     116              0         1.1550         0.0000         0.0000
     117              0         1.1650         0.0000         0.0000
     118              0         1.1750         0.0000         0.0000
     119              0         1.1850         0.0000         0.0000
     120              0         1.1950         0.0000         0.0000
     121              0         1.2050         0.0000         0.0000
     122              0         1.2150         0.0000         0.0000
     123              0         1.2250         0.0000         0.0000
     124              0         1.2350         0.0000         0.0000
     125              0         1.2450         0.0000         0.0000
     126              0         1.2550         0.0000         0.0000
     127              0         1.2650         0.0000         0.0000
     128              0         1.2750         0.0000         0.0000
     129              0         1.2850         0.0000         0.0000
     130              0         1.2950         0.0000         0.0000
     131              2         1.3050         0.0000         0.0000
     132              2         1.3150         0.0000         0.0000
     133              0         1.3250         0.0000         0.0000
     134              0         1.3350         0.0000         0.0000
     135              0         1.3450         0.0000         0.0000
     136              0         1.3550         0.0000         0.0000
     137              6         1.3650         0.0001         0.0000
     138              2         1.3750         0.0000         0.0001
     139             14         1.3850         0.0003         0.0002
     140             14         1.3950         0.0003         0.0002
     141              2         1.4050         0.0000         0.0001
     142             12         1.4150         0.0002         0.0002
     143             22         1.4250         0.0004         0.0003
     144             16         1.4350         0.0003         0.0004
     145             38         1.4450         0.0007         0.0005
     146             38         1.4550         0.0007         0.0008
     147             64         1.4650         0.0011         0.0010
     148             74         1.4750         0.0013         0.0015
     149            122         1.4850         0.0020         0.0018
     150            124         1.4950         0.0021         0.0021
     151            146         1.5050         0.0024         0.0025
     152            202         1.5150         0.0033         0.0033
     153            250         1.5250         0.0040         0.0035
     154            206         1.5350         0.0032         0.0038
     155            312         1.5450         0.0048         0.0045
     156            388         1.5550         0.0059         0.0060
     157            490         1.5650         0.0074         0.0073
     158            592         1.5750         0.0088         0.0092
     159            782         1.5850         0.0115         0.0109
     160            838         1.5950         0.0122         0.0127
     161           1018         1.6050         0.0146         0.0144
     162           1204         1.6150         0.0171         0.0173
     163           1482         1.6250         0.0208         0.0204
     164           1722         1.6350         0.0238         0.0241
     165           2072         1.6450         0.0283         0.0283
     166           2440         1.6550         0.0330         0.0324
     167           2734         1.6650         0.0365         0.0374
     168           3332         1.6750         0.0439         0.0435
     169           3788         1.6850         0.0494         0.0486
     170           4070         1.6950         0.0524         0.0538
     171           4828         1.7050         0.0615         0.0606
     172           5458         1.7150         0.0687         0.0686
     173           6132         1.7250         0.0762         0.0767
     174           7048         1.7350         0.0866         0.0865
     175           8020         1.7450         0.0975         0.0972
     176           8980         1.7550         0.1079         0.1083
     177          10092         1.7650         0.1199         0.1190
     178          11074         1.7750         0.1301         0.1312
     179          12488         1.7850         0.1450         0.1444
     180          13804         1.7950         0.1585         0.1581
     181          15084         1.8050         0.1713         0.1724
     182          16830         1.8150         0.1890         0.1877
     183          18432         1.8250         0.2048         0.2067
     184          20666         1.8350         0.2271         0.2249
     185          22270         1.8450         0.2421         0.2435
     186          24306         1.8550         0.2614         0.2607
     187          26334         1.8650         0.2801         0.2804
     188          28606         1.8750         0.3011         0.3011
     189          31074         1.8850         0.3236         0.3238
     190          33672         1.8950         0.3469         0.3462
     191          36052         1.9050         0.3676         0.3679
     192          38702         1.9150         0.3905         0.3908
     193          41742         1.9250         0.4168         0.4171
     194          44976         1.9350         0.4445         0.4439
     195          47878         1.9450         0.4683         0.4679
     196          50562         1.9550         0.4895         0.4900
     197          53654         1.9650         0.5141         0.5142
     198          57162         1.9750         0.5422         0.5422
     199          60998         1.9850         0.5728         0.5739
     200          65052         1.9950         0.6048         0.6014
     201          67800         2.0050         0.6240         0.6279
     202          71934         2.0150         0.6555         0.6526
     203          75302         2.0250         0.6795         0.6823
     204          79548         2.0350         0.7107         0.7069
     205          82576         2.0450         0.7306         0.7340
     206          87258         2.0550         0.7645         0.7646
     207          92016         2.0650         0.7984         0.7951
     208          95082         2.0750         0.8171         0.8201
     209          99166         2.0850         0.8440         0.8425
     210         102928         2.0950         0.8677         0.8687
     211         107124         2.1050         0.8945         0.8936
     212         111192         2.1150         0.9197         0.9220
     213         115836         2.1250         0.9491         0.9446
     214         118516         2.1350         0.9620         0.9661
     215         123224         2.1450         0.9909         0.9909
     216         128076         2.1550         1.0204         1.0170
     217         131168         2.1650         1.0354         1.0385
     218         135670         2.1750         1.0611         1.0615
     219         140216         2.1850         1.0867         1.0829
     220         142796         2.1950         1.0966         1.1008
     221         147154         2.2050         1.1199         1.1173
     222         150622         2.2150         1.1359         1.1362
     223         154454         2.2250         1.1544         1.1567
     224         159522         2.2350         1.1816         1.1794
     225         163050         2.2450         1.1970         1.1968
     226         165768         2.2550         1.2062         1.2067
     227         168804         2.2650         1.2175         1.2184
     228         172544         2.2750         1.2335         1.2327
     229         175870         2.2850         1.2463         1.2468
     230         178984         2.2950         1.2574         1.2560
     231         181324         2.3050         1.2628         1.2645
     232         184632         2.3150         1.2747         1.2746
     233         187752         2.3250         1.2851         1.2842
     234         189718         2.3350         1.2875         1.2860
     235         191092         2.3450         1.2858         1.2902
     236         195044         2.3550         1.3012         1.2977
     237         196970         2.3650         1.3030         1.3041
     238         198496         2.3750         1.3021         1.3005
     239         199362         2.3850         1.2968         1.3001
     240         202146         2.3950         1.3040         1.3015
     241         203580         2.4050         1.3023         1.3025
     242         204750         2.4150         1.2990         1.3004
     243         206450         2.4250         1.2990         1.2970
     244         206898         2.4350         1.2911         1.2931
     245         208032         2.4450         1.2876         1.2854
     246         208162         2.4550         1.2779         1.2809
     247         209702         2.4650         1.2770         1.2742
     248         209400         2.4750         1.2648         1.2660
     249         209284         2.4850         1.2540         1.2538
     250         209146         2.4950         1.2431         1.2431
     251         209114         2.5050         1.2330         1.2334
     252         209376         2.5150         1.2248         1.2247
     253         209388         2.5250         1.2152         1.2151
     254         208658         2.5350         1.2014         1.2000
     255         206754         2.5450         1.1811         1.1837
     256         206070         2.5550         1.1680         1.1652
     257         203758         2.5650         1.1459         1.1470
     258         202744         2.5750         1.1314         1.1336
     259         203772         2.5850         1.1283         1.1265
     260         202838         2.5950         1.1145         1.1126
     261         199694         2.6050         1.0888         1.0910
     262         198228         2.6150         1.0726         1.0736
     263         197736         2.6250         1.0618         1.0587
     264         195292         2.6350         1.0407         1.0443
     265         194692         2.6450         1.0297         1.0265
     266         191852         2.6550         1.0070         1.0077
     267         189796         2.6650         0.9888         0.9914
     268         190038         2.6750         0.9827         0.9802
     269         188248         2.6850         0.9662         0.9655
     270         185590         2.6950         0.9455         0.9477
     271         184886         2.7050         0.9349         0.9342
     272         183882         2.7150         0.9230         0.9222
     273         181956         2.7250         0.9067         0.9070
     274         180374         2.7350         0.8922         0.8935
     275         179598         2.7450         0.8819         0.8796
     276         177060         2.7550         0.8631         0.8639
     277         175608         2.7650         0.8499         0.8521
     278         176296         2.7750         0.8471         0.8441
     279         174826         2.7850         0.8340         0.8357
     280         174142         2.7950         0.8248         0.8241
     281         173162         2.8050         0.8143         0.8149
     282         172542         2.8150         0.8056         0.8048
     283         171440         2.8250         0.7948         0.7958
     284         171168         2.8350         0.7880         0.7871
     285         170620         2.8450         0.7800         0.7809
     286         170950         2.8550         0.7760         0.7751
     287         170872         2.8650         0.7702         0.7713
     288         171444         2.8750         0.7675         0.7659
     289         170914         2.8850         0.7598         0.7610
     290         171548         2.8950         0.7573         0.7576
     291         172396         2.9050         0.7559         0.7542
     292         171824         2.9150         0.7482         0.7496
     293         172592         2.9250         0.7464         0.7459
     294         173598         2.9350         0.7457         0.7464
     295         175114         2.9450         0.7471         0.7459
     296         175452         2.9550         0.7434         0.7438
     297         175988         2.9650         0.7407         0.7411
     298         177136         2.9750         0.7405         0.7403
     299         178320         2.9850         0.7405         0.7405
     300         179628         2.9950         0.7409         0.7412
     301         181198         3.0050         0.7425         0.7423
     302         182510         3.0150         0.7429         0.7420
     303         183622         3.0250         0.7425         0.7453
     304         187088         3.0350         0.7515         0.7474
     305         187148         3.0450         0.7468         0.7503
     306         189878         3.0550         0.7528         0.7506
     307         191292         3.0650         0.7534         0.7545
     308         193848         3.0750         0.7585         0.7590
     309         196720         3.0850         0.7648         0.7628
     310         197776         3.0950         0.7639         0.7666
     311         200824         3.1050         0.7707         0.7677
     312         201488         3.1150         0.7683         0.7707
     313         204672         3.1250         0.7755         0.7750
     314         207964         3.1350         0.7829         0.7824
     315         210252         3.1450         0.7865         0.7862
     316         212134         3.1550         0.7885         0.7895
     317         215060         3.1650         0.7944         0.7933
     318         217382         3.1750         0.7979         0.7993
     319         220962         3.1850         0.8059         0.8046
     320         223178         3.1950         0.8089         0.8092
     321         225618         3.2050         0.8127         0.8134
     322         229030         3.2150         0.8199         0.8189
     323         231820         3.2250         0.8247         0.8256
     324         235420         3.2350         0.8323         0.8319
     325         238476         3.2450         0.8380         0.8375
     326         241000         3.2550         0.8416         0.8427
     327         244506         3.2650         0.8487         0.8470
     328         246850         3.2750         0.8516         0.8535
     329         251324         3.2850         0.8617         0.8602
     330         254594         3.2950         0.8677         0.8688
     331         258526         3.3050         0.8757         0.8744
     332         260998         3.3150         0.8788         0.8799
     333         264556         3.3250         0.8854         0.8853
     334         267938         3.3350         0.8914         0.8904
     335         270382         3.3450         0.8941         0.8957
     336         274632         3.3550         0.9028         0.9011
     337         277698         3.3650         0.9074         0.9092
     338         282590         3.3750         0.9179         0.9164
     339         285950         3.3850         0.9234         0.9240
     340         289816         3.3950         0.9304         0.9301
     341         294044         3.4050         0.9384         0.9401
     342         299402         3.4150         0.9499         0.9465
     343         300508         3.4250         0.9479         0.9504
     344         304564         3.4350         0.9551         0.9552
     345         309512         3.4450         0.9650         0.9632
     346         312700         3.4550         0.9693         0.9714
     347         317944         3.4650         0.9798         0.9781
     348         321102         3.4750         0.9839         0.9843
     349         324434         3.4850         0.9884         0.9886
     350         328572         3.4950         0.9953         0.9959
     351         333516         3.5050         1.0045         1.0032
     352         336676         3.5150         1.0083         1.0086
     353         340400         3.5250         1.0136         1.0147
     354         345876         3.5350         1.0241         1.0230
     355         349910         3.5450         1.0302         1.0309
     356         353878         3.5550         1.0361         1.0345
     357         356538         3.5650         1.0380         1.0413
     358         362938         3.5750         1.0507         1.0466
     359         364928         3.5850         1.0506         1.0543
     360         370928         3.5950         1.0619         1.0597
     361         374282         3.6050         1.0656         1.0660
     362         377576         3.6150         1.0690         1.0695
     363         381674         3.6250         1.0747         1.0740
     364         385598         3.6350         1.0798         1.0816
     365         391306         3.6450         1.0898         1.0867
     366         393212         3.6550         1.0891         1.0923
     367         398640         3.6650         1.0981         1.0961
     368         401552         3.6750         1.1001         1.1004
     369         404378         3.6850         1.1018         1.1022
     370         408432         3.6950         1.1069         1.1076
     371         413596         3.7050         1.1148         1.1139
     372         416764         3.7150         1.1173         1.1168
     373         418816         3.7250         1.1168         1.1178
     374         422978         3.7350         1.1219         1.1224
     375         427982         3.7450         1.1291         1.1277
     376         430316         3.7550         1.1292         1.1296
     377         432602         3.7650         1.1292         1.1291
     378         435964         3.7750         1.1319         1.1338
     379         441788         3.7850         1.1410         1.1380
     380         443272         3.7950         1.1388         1.1412
     381         447012         3.8050         1.1424         1.1408
     382         448962         3.8150         1.1414         1.1422
     383         452474         3.8250         1.1443         1.1451
     384         457012         3.8350         1.1498         1.1478
     385         458496         3.8450         1.1475         1.1495
     386         462020         3.8550         1.1503         1.1488
     387         463572         3.8650         1.1482         1.1493
     388         466210         3.8750         1.1488         1.1478
     389         467808         3.8850         1.1468         1.1479
     390         470996         3.8950         1.1487         1.1480
     391         473090         3.9050         1.1479         1.1478
     392         474976         3.9150         1.1466         1.1474
     393         477906         3.9250         1.1478         1.1473
     394         479384         3.9350         1.1455         1.1443
     395         479444         3.9450         1.1399         1.1427
     396         483952         3.9550         1.1448         1.1424
     397         484894         3.9650         1.1412         1.1416
     398         486004         3.9750         1.1381         1.1393
     399         489022         3.9850         1.1394         1.1381
     400         489582         3.9950         1.1350         1.1354
     401         490022         4.0050         1.1304         1.1303
     402         490588         4.0150         1.1260         1.1261
     403         491934         4.0250         1.1235         1.1241
     404         494372         4.0350         1.1235         1.1232
     405         495514         4.0450         1.1205         1.1191
     406         494382         4.0550         1.1125         1.1149
     407         497644         4.0650         1.1143         1.1134
     408         499536         4.0750         1.1131         1.1118
     409         498848         4.0850         1.1061         1.1081
     410         501024         4.0950         1.1055         1.1042
     411         500950         4.1050         1.1000         1.0999
     412         500244         4.1150         1.0931         1.0935
     413         501022         4.1250         1.0895         1.0900
     414         502910         4.1350         1.0883         1.0865
     415         502544         4.1450         1.0823         1.0851
     416         506150         4.1550         1.0848         1.0817
     417         504378         4.1650         1.0758         1.0773
     418         504834         4.1750         1.0716         1.0722
     419         507228         4.1850         1.0716         1.0705
     420         508188         4.1950         1.0685         1.0693
     421         509962         4.2050         1.0671         1.0660
     422         510162         4.2150         1.0625         1.0636
     423         512402         4.2250         1.0621         1.0621
     424         514272         4.2350         1.0609         1.0595
     425         513376         4.2450         1.0541         1.0561
     426         515320         4.2550         1.0531         1.0515
     427         514634         4.2650         1.0468         1.0473
     428         515480         4.2750         1.0436         1.0449
     429         519156         4.2850         1.0462         1.0440
     430         519454         4.2950         1.0419         1.0437
     431         522534         4.3050         1.0432         1.0419
     432         524034         4.3150         1.0414         1.0427
     433         527096         4.3250         1.0426         1.0408
     434         526948         4.3350         1.0375         1.0395
     435         529738         4.3450         1.0382         1.0363
     436         530058         4.3550         1.0341         1.0362
     437         533844         4.3650         1.0367         1.0351
     438         534542         4.3750         1.0333         1.0334
     439         535152         4.3850         1.0298         1.0306
     440         538214         4.3950         1.0310         1.0306
     441         541048         4.4050         1.0317         1.0318
     442         543172         4.4150         1.0311         1.0297
     443         543450         4.4250         1.0269         1.0296
     444         549004         4.4350         1.0328         1.0306
     445         550676         4.4450         1.0312         1.0322
     446         552584         4.4550         1.0302         1.0291
     447         552826         4.4650         1.0260         1.0277
     448         556266         4.4750         1.0278         1.0258
     449         556864         4.4850         1.0243         1.0266
     450         561156         4.4950         1.0276         1.0256
     451         561300         4.5050         1.0233         1.0240
     452         562564         4.5150         1.0211         1.0214
     453         566024         4.5250         1.0228         1.0233
     454         570490         4.5350         1.0264         1.0249
     455         571578         4.5450         1.0238         1.0250
     456         574636         4.5550         1.0248         1.0245
     457         576930         4.5650         1.0244         1.0233
     458         577240         4.5750         1.0204         1.0221
     459         581368         4.5850         1.0232         1.0224
     460         584072         4.5950         1.0235         1.0231
     461         585444         4.6050         1.0215         1.0225
     462         588616         4.6150         1.0226         1.0214
     463         589688         4.6250         1.0200         1.0212
     464         592774         4.6350         1.0209         1.0200
     465         594146         4.6450         1.0189         1.0195
     466         596650         4.6550         1.0188         1.0187
     467         599264         4.6650         1.0189         1.0189
     468         601856         4.6750         1.0189         1.0188
     469         604144         4.6850         1.0184         1.0187
     470         606936         4.6950         1.0188         1.0184
     471         608946         4.7050         1.0178         1.0180
     472         611182         4.7150         1.0172         1.0171
     473         613216         4.7250         1.0163         1.0162
     474         615372         4.7350         1.0156         1.0163
     475         618898         4.7450         1.0171         1.0162
     476         619782         4.7550         1.0143         1.0143
     477         620324         4.7650         1.0109         1.0112
     478         622752         4.7750         1.0106         1.0113
     479         626816         4.7850         1.0129         1.0117
     480         627376         4.7950         1.0096         1.0096
     481         627978         4.8050         1.0064         1.0081
     482         632704         4.8150         1.0098         1.0077
     483         633486         4.8250         1.0068         1.0086
     484         637458         4.8350         1.0089         1.0077
     485         638826         4.8450         1.0069         1.0076
     486         640742         4.8550         1.0058         1.0051
     487         641366         4.8650         1.0026         1.0031
     488         644394         4.8750         1.0033         1.0044
     489         650074         4.8850         1.0080         1.0059
     490         650022         4.8950         1.0038         1.0047
     491         651188         4.9050         1.0015         1.0018
     492         653402         4.9150         1.0008         1.0002
     493         654114         4.9250         0.9978         0.9978
     494         655104         4.9350         0.9953         0.9958
     495         658224         4.9450         0.9960         0.9960
     496         661006         4.9550         0.9962         0.9945
     497         660492         4.9650         0.9914         0.9946
     498         666376         4.9750         0.9962         0.9923
     499         663408         4.9850         0.9878         0.9908
     500         667054         4.9950         0.9892         0.9882
     501         669130         5.0050         0.9883         0.9878
     502         669432         5.0150         0.9849         0.9857
     503         672464         5.0250         0.9854         0.9854
     504         675764         5.0350         0.9863         0.9857
     505         676842         5.0450         0.9840         0.9839
     506         677754         5.0550         0.9814         0.9822
     507         680854         5.0650         0.9820         0.9809
     508         681692         5.0750         0.9793         0.9799
     509         684252         5.0850         0.9791         0.9798
     510         687904         5.0950         0.9805         0.9788
     511         686772         5.1050         0.9751         0.9763
     512         689268         5.1150         0.9748         0.9750
     513         693492         5.1250         0.9769         0.9765
     514         695290         5.1350         0.9756         0.9746
     515         693982         5.1450         0.9700         0.9717
     516         697338         5.1550         0.9709         0.9697
     517         699136         5.1650         0.9697         0.9711
     518         703738         5.1750         0.9723         0.9701
     519         703246         5.1850         0.9679         0.9701
     520         708164         5.1950         0.9709         0.9698
     521         709948         5.2050         0.9696         0.9689
     522         709134         5.2150         0.9648         0.9663
     523         712732         5.2250         0.9660         0.9651
     524         715060         5.2350         0.9654         0.9656
     525         717988         5.2450         0.9657         0.9662
     526         721914         5.2550         0.9673         0.9661
     527         722422         5.2650         0.9643         0.9650
     528         725004         5.2750         0.9641         0.9643
     529         728496         5.2850         0.9650         0.9640
     530         729326         5.2950         0.9625         0.9635
     531         732706         5.3050         0.9633         0.9629
     532         734884         5.3150         0.9625         0.9619
     533         736154         5.3250         0.9606         0.9624
     534         742458         5.3350         0.9652         0.9632
     535         743428         5.3450         0.9628         0.9643
     536         746210         5.3550         0.9628         0.9612
     537         744910         5.3650         0.9576         0.9590
     538         748670         5.3750         0.9588         0.9588
     539         753890         5.3850         0.9619         0.9616
     540         757248         5.3950         0.9626         0.9623
     541         758708         5.4050         0.9609         0.9612
     542         761240         5.4150         0.9606         0.9611
     543         765582         5.4250         0.9625         0.9619
     544         767934         5.4350         0.9619         0.9618
     545         769824         5.4450         0.9607         0.9615
     546         774152         5.4550         0.9626         0.9622
     547         777110         5.4650         0.9627         0.9621
     548         778532         5.4750         0.9610         0.9627
     549         784148         5.4850         0.9644         0.9621
     550         783668         5.4950         0.9603         0.9623
     551         788470         5.5050         0.9627         0.9615
     552         791186         5.5150         0.9625         0.9634
     553         795970         5.5250         0.9648         0.9640
     554         798232         5.5350         0.9641         0.9644
     555         801370         5.5450         0.9644         0.9646
     556         805452         5.5550         0.9658         0.9650
     557         807880         5.5650         0.9652         0.9666
     558         813956         5.5750         0.9690         0.9673
     559         814974         5.5850         0.9667         0.9680
     560         818886         5.5950         0.9679         0.9669
     561         820772         5.6050         0.9667         0.9677
     562         825318         5.6150         0.9686         0.9674
     563         827262         5.6250         0.9674         0.9685
     564         832836         5.6350         0.9705         0.9700
     565         837580         5.6450         0.9725         0.9729
     566         841828         5.6550         0.9740         0.9731
     567         842546         5.6650         0.9714         0.9722
     568         846164         5.6750         0.9721         0.9724
     569         850996         5.6850         0.9743         0.9732
     570         852572         5.6950         0.9726         0.9736
     571         857066         5.7050         0.9743         0.9739
     572         860850         5.7150         0.9752         0.9750
     573         864556         5.7250         0.9760         0.9768
     574         870706         5.7350         0.9795         0.9789
     575         873960         5.7450         0.9798         0.9794
     576         875070         5.7550         0.9776         0.9780
     577         878182         5.7650         0.9777         0.9780
     578         883720         5.7750         0.9804         0.9802
     579         888238         5.7850         0.9820         0.9815
     580         891204         5.7950         0.9819         0.9831
     581         897936         5.8050         0.9859         0.9849
     582         900954         5.8150         0.9859         0.9861
     583         903584         5.8250         0.9853         0.9855
     584         906588         5.8350         0.9852         0.9848
     585         908654         5.8450         0.9841         0.9848
     586         913238         5.8550         0.9857         0.9851
     587         916646         5.8650         0.9860         0.9862
     588         921188         5.8750         0.9875         0.9879
     589         927136         5.8850         0.9905         0.9898
     590         930274         5.8950         0.9905         0.9906
     591         933658         5.9050         0.9907         0.9912
     592         938874         5.9150         0.9929         0.9924
     593         942592         5.9250         0.9935         0.9938
     594         946534         5.9350         0.9943         0.9938
     595         949302         5.9450         0.9938         0.9948
     596         955006         5.9550         0.9964         0.9954
     597         956728         5.9650         0.9949         0.9951
     598         959434         5.9750         0.9944         0.9951
     599         965364         5.9850         0.9972         0.9963
     600         968466         5.9950         0.9970         0.9975
     601         972724         6.0050         0.9981         0.9981
     602         977054         6.0150         0.9992         0.9993
     603         980668         6.0250         0.9996         0.9987
     604         981808         6.0350         0.9974         0.9989
     605         988390         6.0450         1.0008         0.9995
     606         990928         6.0550         1.0001         1.0007
     607         994778         6.0650         1.0006         1.0004
     608         998348         6.0750         1.0009         1.0012
     609        1002746         6.0850         1.0020         1.0018
     610        1005594         6.0950         1.0016         1.0014
     611        1007338         6.1050         1.0000         1.0004
     612        1010660         6.1150         1.0000         0.9994
     613        1013508         6.1250         0.9996         1.0009
     614        1021352         6.1350         1.0040         1.0027
     615        1024666         6.1450         1.0040         1.0050
     616        1029538         6.1550         1.0055         1.0042
     617        1030074         6.1650         1.0028         1.0045
     618        1036368         6.1750         1.0057         1.0041
     619        1037502         6.1850         1.0035         1.0044
     620        1041558         6.1950         1.0042         1.0042
     621        1045904         6.2050         1.0051         1.0044
     622        1047780         6.2150         1.0037         1.0045
     623        1053228         6.2250         1.0057         1.0056
     624        1057862         6.2350         1.0068         1.0059
     625        1057840         6.2450         1.0036         1.0044
     626        1060910         6.2550         1.0033         1.0030
     627        1064840         6.2650         1.0038         1.0044
     628        1070912         6.2750         1.0063         1.0054
     629        1073216         6.2850         1.0053         1.0060
     630        1077014         6.2950         1.0056         1.0046
     631        1078056         6.3050         1.0034         1.0050
     632        1085040         6.3150         1.0067         1.0051
     633        1086414         6.3250         1.0048         1.0059
     634        1090372         6.3350         1.0053         1.0043
     635        1091854         6.3450         1.0035         1.0047
     636        1098420         6.3550         1.0063         1.0056
     637        1101732         6.3650         1.0062         1.0061
     638        1103136         6.3750         1.0043         1.0047
     639        1105698         6.3850         1.0035         1.0031
     640        1107824         6.3950         1.0023         1.0027
     641        1112648         6.4050         1.0035         1.0041
     642        1118694         6.4150         1.0058         1.0040
     643        1117586         6.4250         1.0017         1.0039
     644        1124536         6.4350         1.0048         1.0028
     645        1125674         6.4450         1.0027         1.0045
     646        1133072         6.4550         1.0062         1.0049
     647        1135280         6.4650         1.0050         1.0054
     648        1137682         6.4750         1.0040         1.0040
     649        1140520         6.4850         1.0034         1.0039
     650        1144520         6.4950         1.0039         1.0027
     651        1144764         6.5050         1.0010         1.0024
     652        1152444         6.5150         1.0046         1.0047
     653        1160402         6.5250         1.0085         1.0071
     654        1159972         6.5350         1.0050         1.0055
     655        1160086         6.5450         1.0020         1.0025
     656        1163626         6.5550         1.0020         1.0017
     657        1167342         6.5650         1.0022         1.0026
     658        1172768         6.5750         1.0038         1.0033
     659        1175686         6.5850         1.0032         1.0028
     660        1177448         6.5950         1.0017         1.0028
     661        1184722         6.6050         1.0048         1.0041
     662        1187954         6.6150         1.0045         1.0035
     663        1186648         6.6250         1.0004         1.0023
     664        1194078         6.6350         1.0036         1.0021
     665        1196422         6.6450         1.0025         1.0035
     666        1200814         6.6550         1.0032         1.0018
     667        1200396         6.6650         0.9998         1.0020
     668        1208470         6.6750         1.0036         1.0014
     669        1208814         6.6850         1.0008         1.0025
     670        1215032         6.6950         1.0030         1.0018
     671        1216668         6.7050         1.0013         1.0017
     672        1219860         6.7150         1.0010         1.0012
     673        1225020         6.7250         1.0022         1.0020
     674        1229116         6.7350         1.0026         1.0027
     675        1232044         6.7450         1.0020         1.0012
     676        1231670         6.7550         0.9987         0.9998
     677        1237132         6.7650         1.0002         0.9998
     678        1242486         6.7750         1.0016         1.0018
     679        1248106         6.7850         1.0031         1.0027
     680        1250690         6.7950         1.0023         1.0022
     681        1253264         6.8050         1.0014         1.0024
     682        1259590         6.8150         1.0035         1.0017
     683        1258184         6.8250         0.9994         1.0008
     684        1262964         6.8350         1.0003         0.9998
     685        1267720         6.8450         1.0011         1.0013
     686        1273374         6.8550         1.0026         1.0028
     687        1278240         6.8650         1.0036         1.0025
     688        1277812         6.8750         1.0003         1.0015
     689        1283372         6.8850         1.0017         1.0017
     690        1288968         6.8950         1.0032         1.0021
     691        1289594         6.9050         1.0008         1.0022
     692        1296488         6.9150         1.0032         1.0023
     693        1299044         6.9250         1.0023         1.0022
     694        1300946         6.9350         1.0009         1.0017
     695        1307506         6.9450         1.0030         1.0023
     696        1310898         6.9550         1.0027         1.0027
     697        1313790         6.9650         1.0021         1.0028
     698        1319936         6.9750         1.0039         1.0029
     699        1321738         6.9850         1.0024         1.0028
     700        1325660         6.9950         1.0025         1.0029
     701        1330912         7.0050         1.0036         1.0021
     702        1330088         7.0150         1.0001         1.0021
     703        1338822         7.0250         1.0038         1.0023
     704        1341602         7.0350         1.0030         1.0038
     705        1345434         7.0450         1.0030         1.0016
     706        1344372         7.0550         0.9994         1.0017
     707        1354644         7.0650         1.0042         1.0022
     708        1355990         7.0750         1.0023         1.0033
     709        1359292         7.0850         1.0019         1.0013
     710        1360988         7.0950         1.0004         1.0011
     711        1367384         7.1050         1.0022         1.0021
     712        1372800         7.1150         1.0034         1.0026
     713        1373586         7.1250         1.0011         1.0017
     714        1377934         7.1350         1.0015         1.0019
     715        1385020         7.1450         1.0038         1.0031
     716        1387806         7.1550         1.0030         1.0033
     717        1391250         7.1650         1.0027         1.0029
     718        1395942         7.1750         1.0033         1.0032
     719        1399384         7.1850         1.0030         1.0024
     720        1401016         7.1950         1.0014         1.0028
     721        1409634         7.2050         1.0047         1.0033
     722        1411062         7.2150         1.0030         1.0036
     723        1414614         7.2250         1.0027         1.0025
     724        1418406         7.2350         1.0026         1.0029
     725        1423944         7.2450         1.0037         1.0033
     726        1427478         7.2550         1.0035         1.0038
     727        1432236         7.2650         1.0040         1.0037
     728        1436250         7.2750         1.0041         1.0048
     729        1442748         7.2850         1.0059         1.0047
     730        1442736         7.2950         1.0031         1.0039
     731        1446250         7.3050         1.0028         1.0027
     732        1450194         7.3150         1.0028         1.0025
     733        1453172         7.3250         1.0021         1.0026
     734        1459268         7.3350         1.0036         1.0033
     735        1464612         7.3450         1.0045         1.0047
     736        1469212         7.3550         1.0049         1.0041
     737        1469762         7.3650         1.0026         1.0037
     738        1476116         7.3750         1.0042         1.0032
     739        1478706         7.3850         1.0032         1.0037
     740        1484148         7.3950         1.0042         1.0044
     741        1490324         7.4050         1.0056         1.0048
     742        1490964         7.4150         1.0034         1.0039
     743        1494258         7.4250         1.0029         1.0029
     744        1498862         7.4350         1.0032         1.0029
     745        1501896         7.4450         1.0026         1.0025
     746        1505788         7.4550         1.0025         1.0033
     747        1513540         7.4650         1.0049         1.0035
     748        1513472         7.4750         1.0022         1.0036
     749        1519690         7.4850         1.0036         1.0027
     750        1522598         7.4950         1.0029         1.0037
     751        1529190         7.5050         1.0045         1.0039
     752        1532638         7.5150         1.0041         1.0044
     753        1537176         7.5250         1.0044         1.0044
     754        1542108         7.5350         1.0050         1.0052
     755        1546668         7.5450         1.0053         1.0044
     756        1546962         7.5550         1.0028         1.0042
     757        1555400         7.5650         1.0056         1.0045
     758        1559396         7.5750         1.0055         1.0063
     759        1565666         7.5850         1.0069         1.0063
     760        1567496         7.5950         1.0054         1.0058
     761        1570132         7.6050         1.0045         1.0042
     762        1572756         7.6150         1.0035         1.0044
     763        1580458         7.6250         1.0058         1.0046
     764        1581944         7.6350         1.0041         1.0051
     765        1587638         7.6450         1.0051         1.0046
     766        1590666         7.6550         1.0044         1.0044
     767        1593222         7.6650         1.0034         1.0034
     768        1596560         7.6750         1.0029         1.0032
     769        1601984         7.6850         1.0036         1.0031
     770        1605092         7.6950         1.0030         1.0036
     771        1611378         7.7050         1.0043         1.0035
     772        1613808         7.7150         1.0032         1.0042
     773        1620866         7.7250         1.0050         1.0038
     774        1622106         7.7350         1.0032         1.0044
     775        1630012         7.7450         1.0054         1.0046
     776        1633046         7.7550         1.0047         1.0047
     777        1635398         7.7650         1.0036         1.0040
     778        1641174         7.7750         1.0045         1.0042
     779        1645972         7.7850         1.0049         1.0050
     780        1650724         7.7950         1.0052         1.0052
     781        1654528         7.8050         1.0049         1.0044
     782        1656244         7.8150         1.0034         1.0044
     783        1664614         7.8250         1.0059         1.0051
     784        1668214         7.8350         1.0055         1.0057
     785        1671290         7.8450         1.0048         1.0046
     786        1673928         7.8550         1.0038         1.0046
     787        1680446         7.8650         1.0052         1.0041
     788        1680566         7.8750         1.0027         1.0034
     789        1684928         7.8850         1.0027         1.0025
     790        1690020         7.8950         1.0032         1.0033
     791        1696014         7.9050         1.0042         1.0044
     792        1702452         7.9150         1.0055         1.0054
     793        1706516         7.9250         1.0054         1.0049
     794        1707232         7.9350         1.0032         1.0040
     795        1712992         7.9450         1.0041         1.0034
     796        1716776         7.9550         1.0038         1.0048
     797        1725208         7.9650         1.0062         1.0045
     798        1725450         7.9750         1.0038         1.0062
     799        1737478         7.9850         1.0083         1.0055
     800        1733240         7.9950         1.0033         1.0055
     801        1740036         8.0050         1.0047         1.0034
     802        1741332         8.0150         1.0030         1.0039
     803        1747308         8.0250         1.0039         1.0031
     804        1749806         8.0350         1.0028         1.0037
     805        1756298         8.0450         1.0040         1.0028
     806        1757360         8.0550         1.0022         1.0039
     807        1768348         8.0650         1.0059         1.0045
     808        1769526         8.0750         1.0041         1.0043
     809        1770880         8.0850         1.0024         1.0033
     810        1778630         8.0950         1.0043         1.0032
     811        1779240         8.1050         1.0022         1.0024
     812        1781758         8.1150         1.0011         1.0018
     813        1790860         8.1250         1.0037         1.0036
     814        1797648         8.1350         1.0051         1.0040
     815        1796886         8.1450         1.0022         1.0039
     816        1806138         8.1550         1.0049         1.0033
     817        1806524         8.1650         1.0026         1.0033
     818        1811168         8.1750         1.0027         1.0031
     819        1819658         8.1850         1.0050         1.0044
     820        1823182         8.1950         1.0045         1.0043
     821        1824924         8.2050         1.0030         1.0038
     822        1831286         8.2150         1.0040         1.0029
     823        1831046         8.2250         1.0015         1.0026
     824        1837524         8.2350         1.0026         1.0018
     825        1840312         8.2450         1.0017         1.0020
     826        1846290         8.2550         1.0025         1.0028
     827        1853974         8.2650         1.0042         1.0034
     828        1855246         8.2750         1.0025         1.0030
     829        1858936         8.2850         1.0020         1.0018
     830        1862316         8.2950         1.0014         1.0016
     831        1867678         8.3050         1.0019         1.0019
     832        1873628         8.3150         1.0027         1.0027
     833        1878730         8.3250         1.0030         1.0027
     834        1881850         8.3350         1.0023         1.0027
     835        1887722         8.3450         1.0030         1.0030
     836        1891562         8.3550         1.0026         1.0014
     837        1888196         8.3650         0.9984         1.0005
     838        1899268         8.3750         1.0019         1.0003
     839        1901470         8.3850         1.0007         1.0012
     840        1906142         8.3950         1.0007         1.0012
     841        1913950         8.4050         1.0025         1.0018
     842        1915434         8.4150         1.0008         1.0007
     843        1915384         8.4250         0.9984         0.9990
     844        1921286         8.4350         0.9991         0.9993
     845        1929216         8.4450         1.0009         0.9999
     846        1930940         8.4550         0.9994         1.0008
     847        1940414         8.4650         1.0020         1.0006
     848        1940178         8.4750         0.9995         1.0000
     849        1943316         8.4850         0.9987         0.9991
     850        1951118         8.4950         1.0004         1.0000
     851        1955992         8.5050         1.0005         1.0005
     852        1959460         8.5150         0.9999         0.9999
     853        1963958         8.5250         0.9999         1.0004
     854        1972016         8.5350         1.0016         1.0009
     855        1974108         8.5450         1.0004         1.0008
     856        1977588         8.5550         0.9998         0.9994
     857        1979220         8.5650         0.9983         0.9985
     858        1983368         8.5750         0.9980         0.9982
     859        1989360         8.5850         0.9987         0.9985
     860        1992726         8.5950         0.9981         0.9978
     861        1994174         8.6050         0.9965         0.9971
     862        2001498         8.6150         0.9978         0.9976
     863        2008000         8.6250         0.9987         0.9983
     864        2011184         8.6350         0.9980         0.9988
     865        2018646         8.6450         0.9994         0.9984
     866        2019592         8.6550         0.9976         0.9985
     867        2026238         8.6650         0.9985         0.9981
     868        2029226         8.6750         0.9977         0.9972
     869        2028888         8.6850         0.9952         0.9963
     870        2037762         8.6950         0.9973         0.9967
     871        2043206         8.7050         0.9977         0.9977
     872        2047216         8.7150         0.9973         0.9974
     873        2050924         8.7250         0.9968         0.9968
     874        2054802         8.7350         0.9964         0.9966
     875        2059602         8.7450         0.9965         0.9961
     876        2062544         8.7550         0.9956         0.9964
     877        2070982         8.7650         0.9974         0.9965
     878        2073272         8.7750         0.9963         0.9970
     879        2080228         8.7850         0.9973         0.9971
     880        2084968         8.7950         0.9973         0.9968
     881        2085564         8.8050         0.9953         0.9960
     882        2091708         8.8150         0.9960         0.9961
     883        2098076         8.8250         0.9968         0.9959
     884        2097886         8.8350         0.9944         0.9954
     885        2105328         8.8450         0.9957         0.9952
     886        2111142         8.8550         0.9962         0.9967
     887        2118102         8.8650         0.9972         0.9964
     888        2117568         8.8750         0.9947         0.9955
     889        2122704         8.8850         0.9949         0.9948
     890        2128902         8.8950         0.9956         0.9957
     891        2135402         8.9050         0.9964         0.9960
     892        2138290         8.9150         0.9955         0.9958
     893        2143216         8.9250         0.9955         0.9956
     894        2148892         8.9350         0.9959         0.9960
     895        2153686         8.9450         0.9959         0.9954
     896        2154832         8.9550         0.9942         0.9950
     897        2162408         8.9650         0.9955         0.9951
     898        2168092         8.9750         0.9959         0.9963
     899        2174886         8.9850         0.9968         0.9963
     900        2176554         8.9950         0.9953         0.9953
     901        2178504         9.0050         0.9940         0.9946
     902        2186468         9.0150         0.9955         0.9950
     903        2192112         9.0250         0.9958         0.9961
     904        2198290         9.0350         0.9964         0.9959
     905        2199902         9.0450         0.9949         0.9953
     906        2204730         9.0550         0.9949         0.9951
     907        2212440         9.0650         0.9962         0.9961
     908        2218522         9.0750         0.9967         0.9964
     909        2221184         9.0850         0.9957         0.9960
     910        2226208         9.0950         0.9958         0.9959
     911        2232022         9.1050         0.9962         0.9959
     912        2234894         9.1150         0.9953         0.9954
     913        2239794         9.1250         0.9953         0.9957
     914        2247686         9.1350         0.9966         0.9960
     915        2250016         9.1450         0.9955         0.9960
     916        2255420         9.1550         0.9957         0.9954
     917        2259734         9.1650         0.9954         0.9956
     918        2265604         9.1750         0.9958         0.9955
     919        2269234         9.1850         0.9952         0.9957
     920        2275652         9.1950         0.9959         0.9954
     921        2277598         9.2050         0.9946         0.9947
     922        2280962         9.2150         0.9939         0.9941
     923        2288910         9.2250         0.9952         0.9955
     924        2298922         9.2350         0.9974         0.9966
     925        2300576         9.2450         0.9959         0.9965
     926        2304426         9.2550         0.9954         0.9951
     927        2306562         9.2650         0.9942         0.9946
     928        2313148         9.2750         0.9949         0.9947
     929        2319100         9.2850         0.9953         0.9955
     930        2326200         9.2950         0.9962         0.9960
     931        2331070         9.3050         0.9962         0.9962
     932        2335718         9.3150         0.9960         0.9963
     933        2341448         9.3250         0.9963         0.9957
     934        2342558         9.3350         0.9946         0.9952
     935        2349540         9.3450         0.9955         0.9956
     936        2358946         9.3550         0.9973         0.9966
     937        2362644         9.3650         0.9968         0.9977
     938        2372454         9.3750         0.9988         0.9978
     939        2373976         9.3850         0.9973         0.9977
     940        2378466         9.3950         0.9970         0.9974
     941        2385586         9.4050         0.9979         0.9969
     942        2383602         9.4150         0.9950         0.9956
     943        2388152         9.4250         0.9947         0.9948
     944        2396210         9.4350         0.9960         0.9957
     945        2402386         9.4450         0.9964         0.9965
     946        2408896         9.4550         0.9970         0.9974
     947        2416390         9.4650         0.9980         0.9969
     948        2415446         9.4750         0.9955         0.9971
     949        2427902         9.4850         0.9985         0.9974
     950        2430614         9.4950         0.9975         0.9979
     951        2433836         9.5050         0.9968         0.9968
     952        2438796         9.5150         0.9967         0.9967
     953        2444898         9.5250         0.9971         0.9971
     954        2451990         9.5350         0.9979         0.9981
     955        2459424         9.5450         0.9988         0.9984
     956        2461984         9.5550         0.9978         0.9979
     957        2466264         9.5650         0.9974         0.9978
     958        2474732         9.5750         0.9988         0.9984
     959        2478554         9.5850         0.9982         0.9980
     960        2480544         9.5950         0.9969         0.9974
     961        2488364         9.6050         0.9980         0.9980
     962        2496154         9.6150         0.9990         0.9986
     963        2498780         9.6250         0.9980         0.9980
     964        2502792         9.6350         0.9975         0.9985
     965        2514144         9.6450         1.0000         0.9982
     966        2512004         9.6550         0.9971         0.9993
     967        2526792         9.6650         1.0009         0.9984
     968        2522778         9.6750         0.9972         0.9998
     969        2538150         9.6850         1.0012         0.9988
     970        2535164         9.6950         0.9980         0.9997
     971        2546154         9.7050         1.0002         0.9995
     972        2552908         9.7150         1.0008         1.0009
     973        2557686         9.7250         1.0006         1.0005
     974        2561034         9.7350         0.9999         1.0000
     975        2566480         9.7450         1.0000         1.0002
     976        2573612         9.7550         1.0007         0.9999
     977        2573890         9.7650         0.9987         0.9997
     978        2583538         9.7750         1.0004         0.9999
     979        2588618         9.7850         1.0004         1.0002
     980        2591442         9.7950         0.9994         0.9998
     981        2598056         9.8050         0.9999         0.9995
     982        2601204         9.8150         0.9991         0.9993
     983        2607286         9.8250         0.9994         0.9995
     984        2616472         9.8350         1.0009         1.0010
     985        2624898         9.8450         1.0020         1.0015
     986        2626038         9.8550         1.0005         1.0008
     987        2630746         9.8650         1.0002         1.0006
     988        2639592         9.8750         1.0015         1.0006
     989        2640262         9.8850         0.9998         1.0006
     990        2648296         9.8950         1.0008         1.0005
     991        2654540         9.9050         1.0011         1.0012
     992        2659946         9.9150         1.0011         1.0010
     993        2664658         9.9250         1.0009         1.0012
     994        2672272         9.9350         1.0017         1.0017
     995        2677928         9.9450         1.0018         1.0013
     996        2678716         9.9550         1.0001         1.0011
     997        2688668         9.9650         1.0018         1.0008
     998        2690794         9.9750         1.0006         1.0016
     999        2701194         9.9850         1.0025         1.0016
    1000        2703892         9.9950         1.0015         1.0016
    1001        2708616        10.0050         1.0012         1.0020
    1002        2719408        10.0150         1.0032         1.0016
    1003        2715922        10.0250         0.9999         1.0015
    1004        2727360        10.0350         1.0021         1.0013
    1005        2733200        10.0450         1.0023         1.0024
    1006        2737802        10.0550         1.0020         1.0018
    1007        2741204        10.0650         1.0012         1.0015
    1008        2747318        10.0750         1.0014         1.0009
    1009        2750764        10.0850         1.0007         1.0014
    1010        2762086        10.0950         1.0028         1.0025
    1011        2768710        10.1050         1.0033         1.0029
    1012        2770240        10.1150         1.0018         1.0023
    1013        2776324        10.1250         1.0020         1.0020
    1014        2782658        10.1350         1.0024         1.0022
    1015        2787270        10.1450         1.0020         1.0024
    1016        2794182        10.1550         1.0025         1.0017
    1017        2794518        10.1650         1.0007         1.0019
    1018        2806856        10.1750         1.0031         1.0022
    1019        2809958        10.1850         1.0023         1.0027
    1020        2814196        10.1950         1.0018         1.0012
    1021        2815192        10.2050         1.0002         1.0015
    1022        2829134        10.2150         1.0032         1.0018
    1023        2829910        10.2250         1.0015         1.0025
    1024        2838044        10.2350         1.0024         1.0017
    1025        2840752        10.2450         1.0014         1.0021
    1026        2849230        10.2550         1.0025         1.0019
    1027        2853714        10.2650         1.0021         1.0026
    1028        2862752        10.2750         1.0033         1.0027
    1029        2866430        10.2850         1.0026         1.0032
    1030        2873970        10.2950         1.0033         1.0026
    1031        2875918        10.3050         1.0020         1.0029
    1032        2886044        10.3150         1.0036         1.0030
    1033        2888552        10.3250         1.0026         1.0024
    1034        2889446        10.3350         1.0009         1.0015
    1035        2899558        10.3450         1.0025         1.0025
    1036        2909922        10.3550         1.0041         1.0032
    1037        2909540        10.3650         1.0021         1.0031
    1038        2918104        10.3750         1.0031         1.0021
    1039        2919000        10.3850         1.0015         1.0022
    1040        2927744        10.3950         1.0025         1.0022
    1041        2934928        10.4050         1.0030         1.0031
    1042        2940354        10.4150         1.0030         1.0024
    1043        2940800        10.4250         1.0012         1.0023
    1044        2951558        10.4350         1.0029         1.0017
    1045        2951052        10.4450         1.0008         1.0017
    1046        2960168        10.4550         1.0020         1.0019
    1047        2969030        10.4650         1.0031         1.0027
    1048        2972420        10.4750         1.0023         1.0026
    1049        2977428        10.4850         1.0021         1.0021
    1050        2983394        10.4950         1.0022         1.0024
    1051        2991432        10.5050         1.0030         1.0026
    1052        2995102        10.5150         1.0023         1.0027
    1053        3001696        10.5250         1.0026         1.0025
    1054        3006576        10.5350         1.0023         1.0022
    1055        3009868        10.5450         1.0015         1.0018
    1056        3017418        10.5550         1.0021         1.0021
    1057        3024968        10.5650         1.0027         1.0025
    1058        3029100        10.5750         1.0022         1.0024
    1059        3035322        10.5850         1.0024         1.0025
    1060        3042210        10.5950         1.0028         1.0021
    1061        3042404        10.6050         1.0009         1.0017
    1062        3050688        10.6150         1.0018         1.0011
    1063        3052972        10.6250         1.0006         1.0010
    1064        3058868        10.6350         1.0007         1.0006
    1065        3065708        10.6450         1.0010         1.0011
    1066        3072318        10.6550         1.0013         1.0007
    1067        3073304        10.6650         0.9998         1.0006
    1068        3084398        10.6750         1.0015         1.0011
    1069        3092406        10.6850         1.0022         1.0021
    1070        3097658        10.6950         1.0020         1.0022
    1071        3103848        10.7050         1.0022         1.0019
    1072        3107564        10.7150         1.0015         1.0018
    1073        3113938        10.7250         1.0017         1.0013
    1074        3117488        10.7350         1.0009         1.0013
    1075        3125286        10.7450         1.0016         1.0014
    1076        3131872        10.7550         1.0018         1.0016
    1077        3136750        10.7650         1.0015         1.0021
    1078        3146000        10.7750         1.0026         1.0017
    1079        3144846        10.7850         1.0004         1.0010
    1080        3151348        10.7950         1.0006         1.0008
    1081        3161946        10.8050         1.0021         1.0016
    1082        3165774        10.8150         1.0015         1.0017
    1083        3171702        10.8250         1.0015         1.0015
    1084        3178320        10.8350         1.0017         1.0014
    1085        3181934        10.8450         1.0010         1.0015
    1086        3192016        10.8550         1.0023         1.0023
    1087        3198700        10.8650         1.0026         1.0014
    1088        3191666        10.8750         0.9985         1.0000
    1089        3203350        10.8850         1.0004         0.9997
    1090        3210912        10.8950         1.0009         1.0011
    1091        3217750        10.9050         1.0012         1.0009
    1092        3220808        10.9150         1.0003         1.0007
    1093        3228200        10.9250         1.0008         1.0005
    1094        3232276        10.9350         1.0002         1.0001
    1095        3235490        10.9450         0.9993         0.9996
    1096        3242906        10.9550         0.9998         0.9998
    1097        3250490        10.9650         1.0003         1.0000
    1098        3253610        10.9750         0.9995         0.9997
    1099        3260134        10.9850         0.9996         0.9999
    1100        3269896        10.9950         1.0008         1.0004
    1101        3273980        11.0050         1.0002         1.0005
    1102        3279622        11.0150         1.0001         1.0000
    1103        3285144        11.0250         1.0000         1.0003
    1104        3294430        11.0350         1.0010         1.0010
    1105        3301042        11.0450         1.0012         1.0006
    1106        3300062        11.0550         0.9991         1.0001
    1107        3311636        11.0650         1.0008         1.0001
    1108        3316386        11.0750         1.0004         1.0008
    1109        3322320        11.0850         1.0004         0.9998
    1110        3321566        11.0950         0.9984         0.9991
    1111        3330444        11.1050         0.9992         0.9991
    1112        3338654        11.1150         0.9999         0.9996
    1113        3342832        11.1250         0.9994         0.9997
    1114        3350484        11.1350         0.9999         0.9997
    1115        3357012        11.1450         1.0000         1.0001
    1116        3363446        11.1550         1.0001         0.9998
    1117        3366348        11.1650         0.9992         0.9996
    1118        3375050        11.1750         1.0000         0.9999
    1119        3383088        11.1850         1.0006         1.0002
    1120        3386206        11.1950         0.9997         1.0000
    1121        3393214        11.2050         1.0000         1.0002
    1122        3402226        11.2150         1.0009         1.0003
    1123        3402622        11.2250         0.9992         0.9995
    1124        3407368        11.2350         0.9988         0.9991
    1125        3417852        11.2450         1.0001         0.9996
    1126        3422348        11.2550         0.9996         0.9998
    1127        3427962        11.2650         0.9995         0.9996
    1128        3435296        11.2750         0.9999         0.9994
    1129        3438958        11.2850         0.9992         1.0000
    1130        3450118        11.2950         1.0006         0.9994
    1131        3447262        11.3050         0.9980         0.9993
    1132        3459166        11.3150         0.9997         0.9991
    1133        3464272        11.3250         0.9994         0.9991
    1134        3465864        11.3350         0.9981         0.9990
    1135        3478678        11.3450         1.0000         0.9992
    1136        3482282        11.3550         0.9993         0.9999
    1137        3491592        11.3650         1.0002         1.0000
    1138        3497010        11.3750         1.0000         0.9996
    1139        3498366        11.3850         0.9986         0.9994
    1140        3510084        11.3950         1.0002         0.9995
    1141        3513526        11.4050         0.9994         0.9996
    1142        3518652        11.4150         0.9992         0.9995
    1143        3527674        11.4250         1.0000         0.9995
    1144        3530564        11.4350         0.9990         0.9993
    1145        3536542        11.4450         0.9990         0.9990
    1146        3543404        11.4550         0.9992         0.9992
    1147        3548960        11.4650         0.9990         0.9987
    1148        3551650        11.4750         0.9980         0.9986
    1149        3563738        11.4850         0.9997         0.9993
    1150        3571278        11.4950         1.0000         0.9998
    1151        3573840        11.5050         0.9990         0.9992
    1152        3578674        11.5150         0.9986         0.9988
    1153        3586614        11.5250         0.9991         0.9988
    1154        3591604        11.5350         0.9988         0.9990
    1155        3598692        11.5450         0.9990         0.9987
    1156        3603486        11.5550         0.9986         0.9991
    1157        3614752        11.5650         1.0000         0.9996
    1158        3620738        11.5750         0.9999         0.9998
    1159        3624004        11.5850         0.9991         0.9992
    1160        3630798        11.5950         0.9992         0.9996
    1161        3641688        11.6050         1.0005         1.0000
    1162        3643806        11.6150         0.9994         0.9995
    1163        3647272        11.6250         0.9986         0.9989
    1164        3657966        11.6350         0.9998         0.9999
    1165        3668308        11.6450         1.0009         1.0002
    1166        3667924        11.6550         0.9991         0.9998
    1167        3674934        11.6650         0.9993         0.9986
    1168        3676730        11.6750         0.9981         0.9988
    1169        3688894        11.6850         0.9996         0.9991
    1170        3695132        11.6950         0.9996         0.9999
    1171        3702032        11.7050         0.9998         0.9994
    1172        3704816        11.7150         0.9988         0.9994
    1173        3715458        11.7250         1.0000         0.9998
    1174        3722872        11.7350         1.0003         1.0001
    1175        3725708        11.7450         0.9993         0.9994
    1176        3730338        11.7550         0.9989         0.9993
    1177        3739602        11.7650         0.9997         0.9987
    1178        3737064        11.7750         0.9973         0.9980
    1179        3746398        11.7850         0.9981         0.9983
    1180        3760352        11.7950         1.0001         0.9992
    1181        3761022        11.8050         0.9986         0.9995
    1182        3771526        11.8150         0.9997         0.9990
    1183        3774922        11.8250         0.9989         0.9992
    1184        3781778        11.8350         0.9990         0.9989
    1185        3788728        11.8450         0.9992         0.9993
    1186        3797394        11.8550         0.9997         0.9996
    1187        3804264        11.8650         0.9999         1.0001
    1188        3814094        11.8750         1.0008         1.0008
    1189        3820770        11.8850         1.0008         1.0002
    1190        3818718        11.8950         0.9986         0.9996
    1191        3830270        11.9050         1.0000         0.9990
    1192        3831730        11.9150         0.9987         0.9995
    1193        3842706        11.9250         0.9998         0.9989
    1194        3843782        11.9350         0.9984         0.9994
    1195        3855622        11.9450         0.9998         0.9988
    1196        3856162        11.9550         0.9983         0.9994
    1197        3869166        11.9650         1.0000         0.9992
    1198        3871258        11.9750         0.9989         0.9992
    1199        3876922        11.9850         0.9987         0.9986
    1200        3884106        11.9950         0.9988         0.9990
    1201        3893814        12.0050         0.9997         0.9994
    1202        3898732        12.0150         0.9993         0.9994
    1203        3905590        12.0250         0.9994         0.9998
    1204        3917624        12.0350         1.0008         1.0002
    1205        3919200        12.0450         0.9995         0.9998
    1206        3923418        12.0550         0.9989         0.9991
    1207        3931458        12.0650         0.9993         0.9992
    1208        3938236        12.0750         0.9994         0.9994
    1209        3943438        12.0850         0.9991         0.9989
    1210        3948476        12.0950         0.9987         0.9993
    1211        3962882        12.1050         1.0007         0.9998
    1212        3965546        12.1150         0.9997         1.0003
    1213        3974876        12.1250         1.0004         1.0000
    1214        3979816        12.1350         1.0000         1.0004
    1215        3989314        12.1450         1.0007         1.0003
    1216        3993226        12.1550         1.0001         1.0002
    1217        3999516        12.1650         1.0000         1.0003
    1218        4010082        12.1750         1.0010         1.0004
    1219        4011490        12.1850         0.9997         1.0000
    1220        4017574        12.1950         0.9996         0.9997
    1221        4027576        12.2050         1.0004         1.0004
    1222        4036334        12.2150         1.0009         1.0007
    1223        4039392        12.2250         1.0001         1.0000
    1224        4042714        12.2350         0.9992         0.9996
    1225        4053516        12.2450         1.0003         1.0002
    1226        4061614        12.2550         1.0006         1.0002
    1227        4061920        12.2650         0.9991         0.9994
    1228        4068542        12.2750         0.9991         0.9994
    1229        4081900        12.2850         1.0007         1.0003
    1230        4088474        12.2950         1.0007         1.0009
    1231        4093278        12.3050         1.0003         1.0000
    1232        4094398        12.3150         0.9989         0.9992
    1233        4101606        12.3250         0.9991         0.9991
    1234        4110980        12.3350         0.9997         0.9993
    1235        4114690        12.3450         0.9990         0.9994
    1236        4124362        12.3550         0.9997         0.9995
    1237        4133232        12.3650         1.0003         1.0005
    1238        4143120        12.3750         1.0010         1.0006
    1239        4144842        12.3850         0.9998         1.0002
    1240        4151702        12.3950         0.9999         1.0000
    1241        4161158        12.4050         1.0005         1.0002
    1242        4165994        12.4150         1.0001         1.0003
    1243        4174536        12.4250         1.0005         1.0005
    1244        4182892        12.4350         1.0009         1.0006
    1245        4185638        12.4450         1.0000         1.0002
    1246        4191638        12.4550         0.9998         0.9998
    1247        4199350        12.4650         1.0000         1.0000
    1248        4207246        12.4750         1.0003         1.0002
    1249        4212086        12.4850         0.9998         0.9997
    1250        4216020        12.4950         0.9992         0.9994
    1251        4226138        12.5050         1.0000         0.9999
    1252        4235802        12.5150         1.0006         1.0004
    1253        4240422        12.5250         1.0001         1.0006
    1254        4249818        12.5350         1.0008         1.0000
    1255        4249178        12.5450         0.9990         0.9998
    1256        4260308        12.5550         1.0000         0.9994
    1257        4263670        12.5650         0.9992         0.9995
    1258        4270764        12.5750         0.9993         0.9994
    1259        4280766        12.5850         1.0001         1.0000
    1260        4289374        12.5950         1.0005         1.0006
    1261        4296208        12.6050         1.0005         0.9999
    1262        4294632        12.6150         0.9985         0.9993
    1263        4306924        12.6250         0.9998         0.9996
    1264        4317690        12.6350         1.0007         1.0006
    1265        4323722        12.6450         1.0005         1.0003
    1266        4325988        12.6550         0.9995         1.0000
    1267        4337824        12.6650         1.0006         1.0003
    1268        4343452        12.6750         1.0003         1.0002
    1269        4345242        12.6850         0.9992         0.9995
    1270        4354114        12.6950         0.9996         0.9997
    1271        4365080        12.7050         1.0006         1.0003
    1272        4369270        12.7150         1.0000         1.0000
    1273        4373482        12.7250         0.9994         0.9995
    1274        4381822        12.7350         0.9997         0.9996
    1275        4389914        12.7450         1.0000         0.9999
    1276        4395630        12.7550         0.9997         0.9997
    1277        4402140        12.7650         0.9996         0.9997
    1278        4411034        12.7750         1.0001         1.0003
    1279        4420124        12.7850         1.0006         0.9998
    1280        4416372        12.7950         0.9981         0.9989
    1281        4427496        12.8050         0.9991         0.9990
    1282        4440684        12.8150         1.0005         1.0002
    1283        4446168        12.8250         1.0002         1.0000
    1284        4447636        12.8350         0.9990         0.9996
    1285        4460844        12.8450         1.0004         0.9998
    1286        4466868        12.8550         1.0002         1.0004
    1287        4473866        12.8650         1.0002         1.0001
    1288        4479284        12.8750         0.9998         0.9998
    1289        4484322        12.8850         0.9994         0.9996
    1290        4493268        12.8950         0.9998         0.9997
    1291        4500360        12.9050         0.9999         0.9996
    1292        4505220        12.9150         0.9994         1.0000
    1293        4520144        12.9250         1.0012         1.0004
    1294        4522908        12.9350         1.0002         1.0008
    1295        4530634        12.9450         1.0004         0.9997
    1296        4530442        12.9550         0.9988         0.9997
    1297        4544654        12.9650         1.0004         0.9996
    1298        4547674        12.9750         0.9995         0.9998
    1299        4555844        12.9850         0.9998         0.9999
    1300        4567120        12.9950         1.0007         1.0006
    1301        4574152        13.0050         1.0007         1.0005
    1302        4575982        13.0150         0.9995         0.9999
    1303        4584046        13.0250         0.9998         0.9994
    1304        4589262        13.0350         0.9994         1.0001
    1305        4604452        13.0450         1.0011         0.9999
    1306        4601588        13.0550         0.9990         1.0004
    1307        4619258        13.0650         1.0013         1.0002
    1308        4621952        13.0750         1.0003         1.0009
    1309        4631116        13.0850         1.0008         1.0006
    1310        4637784        13.0950         1.0007         1.0010
    1311        4646294        13.1050         1.0010         1.0004
    1312        4645804        13.1150         0.9994         1.0002
    1313        4658642        13.1250         1.0006         1.0000
    1314        4660590        13.1350         0.9995         0.9996
    1315        4663610        13.1450         0.9986         0.9988
    1316        4672970        13.1550         0.9991         0.9990
    1317        4683472        13.1650         0.9998         1.0000
    1318        4695988        13.1750         1.0010         1.0007
    1319        4700556        13.1850         1.0005         1.0004
    1320        4703774        13.1950         0.9996         1.0001
    1321        4714676        13.2050         1.0004         0.9998
    1322        4716206        13.2150         0.9992         0.9997
    1323        4726678        13.2250         0.9999         1.0001
    1324        4740490        13.2350         1.0013         1.0008
    1325        4742516        13.2450         1.0003         1.0005
    1326        4747926        13.2550         0.9999         1.0003
    1327        4760406        13.2650         1.0010         1.0001
    1328        4758806        13.2750         0.9992         1.0000
    1329        4770070        13.2850         1.0000         0.9996
    1330        4775644        13.2950         0.9997         0.9996
    1331        4780702        13.3050         0.9992         0.9997
    1332        4795086        13.3150         1.0007         1.0004
    1333        4802532        13.3250         1.0008         1.0005
    1334        4803220        13.3350         0.9994         1.0001
    1335        4813924        13.3450         1.0002         0.9996
    1336        4816770        13.3550         0.9993         0.9995
    1337        4824650        13.3650         0.9994         0.9995
    1338        4835598        13.3750         1.0002         0.9998
    1339        4840262        13.3850         0.9996         0.9998
    1340        4846966        13.3950         0.9995         0.9997
    1341        4856938        13.4050         1.0001         0.9998
    1342        4862168        13.4150         0.9997         0.9999
    1343        4870734        13.4250         0.9999         0.9998
    1344        4877256        13.4350         0.9998         0.9998
    1345        4883118        13.4450         0.9995         0.9995
    1346        4891228        13.4550         0.9997         0.9999
    1347        4903710        13.4650         1.0007         1.0006
    1348        4912514        13.4750         1.0010         1.0008
    1349        4915106        13.4850         1.0001         1.0005
    1350        4924930        13.4950         1.0006         1.0003
    1351        4930100        13.5050         1.0002         1.0004
    1352        4936390        13.5150         1.0000         0.9998
    1353        4939072        13.5250         0.9990         0.9990
    1354        4944788        13.5350         0.9987         0.9992
    1355        4959296        13.5450         1.0002         0.9995
    1356        4961686        13.5550         0.9992         0.9995
    1357        4968432        13.5650         0.9991         0.9990
    1358        4976110        13.5750         0.9991         0.9991
    1359        4984944        13.5850         0.9994         0.9996
    1360        4996078        13.5950         1.0002         0.9999
    1361        5002710        13.6050         1.0000         1.0007
    1362        5016824        13.6150         1.0014         1.0004
    1363        5014120        13.6250         0.9994         1.0004
    1364        5026958        13.6350         1.0005         0.9995
    1365        5028432        13.6450         0.9993         1.0004
    1366        5045812        13.6550         1.0013         1.0002
    1367        5043042        13.6650         0.9993         0.9998
    1368        5048472        13.6750         0.9989         0.9991
    1369        5061832        13.6850         1.0001         0.9997
    1370        5067734        13.6950         0.9998         0.9998
    1371        5074828        13.7050         0.9997         0.9999
    1372        5086896        13.7150         1.0006         1.0005
    1373        5095416        13.7250         1.0008         1.0007
    1374        5099934        13.7350         1.0003         1.0004
    1375        5106348        13.7450         1.0001         1.0000
    1376        5110874        13.7550         0.9995         0.9995
    1377        5115900        13.7650         0.9990         0.9992
    1378        5125522        13.7750         0.9995         0.9993
    1379        5134862        13.7850         0.9998         1.0001
    1380        5145470        13.7950         1.0004         0.9997
    1381        5143536        13.8050         0.9986         0.9996
    1382        5158984        13.8150         1.0002         0.9991
    1383        5159652        13.8250         0.9988         1.0000
    1384        5180036        13.8350         1.0013         1.0004
    1385        5182396        13.8450         1.0004         1.0007
    1386        5187898        13.8550         1.0000         1.0002
    1387        5197190        13.8650         1.0003         0.9998
    1388        5199552        13.8750         0.9993         1.0000
    1389        5213470        13.8850         1.0006         1.0000
    1390        5218580        13.8950         1.0001         1.0005
    1391        5229318        13.9050         1.0007         1.0006
    1392        5235924        13.9150         1.0005         1.0003
    1393        5237206        13.9250         0.9993         0.9999
    1394        5249368        13.9350         1.0002         0.9998
    1395        5255724        13.9450         1.0000         1.0002
    1396        5264044        13.9550         1.0002         1.0000
    1397        5270822        13.9650         1.0000         1.0001
    1398        5279878        13.9750         1.0003         1.0002
    1399        5287498        13.9850         1.0003         1.0003
    1400        5294050        13.9950         1.0001         1.0002
    1401        5302264        14.0050         1.0002         1.0002
    1402        5309940        14.0150         1.0003         1.0003
    1403        5318254        14.0250         1.0004         1.0003
    1404        5323346        14.0350         0.9999         0.9998
    1405        5328016        14.0450         0.9994         0.9998
    1406        5341752        14.0550         1.0005         1.0004
    1407        5350006        14.0650         1.0007         1.0001
    1408        5347938        14.0750         0.9988         1.0000
    1409        5366512        14.0850         1.0009         0.9996
    1410        5364312        14.0950         0.9991         1.0001
    1411        5380638        14.1050         1.0007         1.0000
    1412        5386820        14.1150         1.0004         1.0007
    1413        5395462        14.1250         1.0006         1.0005
    1414        5403566        14.1350         1.0007         1.0008
    1415        5412404        14.1450         1.0009         1.0007
    1416        5416128        14.1550         1.0002         1.0001
    1417        5420288        14.1650         0.9995         1.0002
    1418        5437096        14.1750         1.0012         1.0004
    1419        5438318        14.1850         1.0000         1.0007
    1420        5450162        14.1950         1.0008         1.0004
    1421        5456188        14.2050         1.0005         1.0006
    1422        5462930        14.2150         1.0003         1.0004
    1423        5472268        14.2250         1.0006         1.0004
    1424        5478314        14.2350         1.0003         1.0005
    1425        5487768        14.2450         1.0006         1.0004
    1426        5492850        14.2550         1.0002         1.0004
    1427        5501516        14.2650         1.0003         1.0001
    1428        5506244        14.2750         0.9998         1.0001
    1429        5516214        14.2850         1.0002         0.9999
    1430        5522192        14.2950         0.9999         1.0001
    1431        5532130        14.3050         1.0003         1.0001
    1432        5538600        14.3150         1.0001         1.0000
    1433        5544926        14.3250         0.9998         1.0003
    1434        5560116        14.3350         1.0011         1.0004
    1435        5560252        14.3450         0.9998         1.0000
    1436        5568030        14.3550         0.9998         1.0005
    1437        5590138        14.3650         1.0024         1.0014
    1438        5589090        14.3750         1.0008         1.0012
    1439        5592306        14.3850         1.0000         1.0002
    1440        5602120        14.3950         1.0003         0.9999
    1441        5606662        14.4050         0.9997         1.0002
    1442        5619784        14.4150         1.0007         1.0004
    1443        5627374        14.4250         1.0007         1.0005
    1444        5631220        14.4350         0.9999         1.0004
    1445        5644322        14.4450         1.0009         1.0004
    1446        5647830        14.4550         1.0001         1.0002
    1447        5651632        14.4650         0.9994         0.9996
    1448        5660458        14.4750         0.9996         0.9992
    1449        5664184        14.4850         0.9989         0.9994
    1450        5680136        14.4950         1.0003         0.9998
    1451        5688006        14.5050         1.0003         1.0005
    1452        5697818        14.5150         1.0007         1.0005
    1453        5704570        14.5250         1.0005         1.0005
    1454        5712064        14.5350         1.0004         1.0005
    1455        5721352        14.5450         1.0006         1.0005
    1456        5727684        14.5550         1.0004         1.0004
    1457        5733306        14.5650         1.0000         1.0001
    1458        5741594        14.5750         1.0001         0.9999
    1459        5749558        14.5850         1.0001         1.0003
    1460        5761448        14.5950         1.0008         1.0004
    1461        5766472        14.6050         1.0003         1.0005
    1462        5775656        14.6150         1.0005         1.0003
    1463        5782402        14.6250         1.0003         1.0005
    1464        5793174        14.6350         1.0008         1.0006
    1465        5798534        14.6450         1.0003         1.0002
    1466        5800864        14.6550         0.9994         0.9997
    1467        5813298        14.6650         1.0002         1.0002
    1468        5826186        14.6750         1.0010         1.0006
    1469        5829056        14.6850         1.0001         1.0005
    1470        5839068        14.6950         1.0005         1.0005
    1471        5849088        14.7050         1.0008         1.0005
    1472        5851412        14.7150         0.9999         1.0002
    1473        5859406        14.7250         0.9999         0.9998
    1474        5867802        14.7350         1.0000         1.0000
    1475        5877100        14.7450         1.0002         1.0000
    1476        5883022        14.7550         0.9998         1.0000
    1477        5892438        14.7650         1.0001         1.0000
    1478        5900354        14.7750         1.0001         1.0000
    1479        5905998        14.7850         0.9997         0.9999
    1480        5915402        14.7950         0.9999         0.9995
    1481        5917564        14.8050         0.9989         0.9996
    1482        5933330        14.8150         1.0002         0.9996
    1483        5937296        14.8250         0.9996         1.0000
    1484        5949794        14.8350         1.0003         1.0002
    1485        5958896        14.8450         1.0005         1.0003
    1486        5961626        14.8550         0.9996         0.9998
    1487        5969562        14.8650         0.9996         0.9998
    1488        5982588        14.8750         1.0004         0.9997
    1489        5982290        14.8850         0.9990         1.0000
    1490        6000900        14.8950         1.0008         1.0000
    1491        6006202        14.9050         1.0003         1.0010
    1492        6020326        14.9150         1.0013         1.0007
    1493        6018660        14.9250         0.9997         0.9999
    1494        6021982        14.9350         0.9989         0.9992
    1495        6035832        14.9450         0.9999         0.9996
    1496        6044106        14.9550         0.9999         1.0000
    1497        6050842        14.9650         0.9997         0.9996
    1498        6057474        14.9750         0.9995         0.9998
    1499        6070750        14.9850         1.0003         1.0000
    1500        6076728        14.9950         1.0000         1.0001
    1501        6085752        15.0050         1.0001         1.0004
    1502        6098204        15.0150         1.0008         1.0002
    1503        6097352        15.0250         0.9994         0.9999
    1504        6108056        15.0350         0.9998         0.9995
    1505        6117506        15.0450         1.0000         1.0002
    1506        6129872        15.0550         1.0007         1.0003
    1507        6132922        15.0650         0.9999         1.0000
    1508        6138556        15.0750         0.9994         0.9993
    1509        6145214        15.0850         0.9992         0.9995
    1510        6160006        15.0950         1.0003         0.9999
    1511        6165408        15.1050         0.9998         1.0000
    1512        6171774        15.1150         0.9995         0.9995
    1513        6178828        15.1250         0.9994         0.9994
    1514        6186416        15.1350         0.9993         0.9993
    1515        6195266        15.1450         0.9994         0.9995
    1516        6205710        15.1550         0.9997         0.9996
    1517        6211030        15.1650         0.9993         0.9992
    1518        6216868        15.1750         0.9989         0.9993
    1519        6231276        15.1850         0.9999         0.9993
    1520        6234422        15.1950         0.9991         0.9996
    1521        6249010        15.2050         1.0001         1.0000
    1522        6262196        15.2150         1.0009         1.0007
    1523        6265798        15.2250         1.0002         1.0001
    1524        6267952        15.2350         0.9992         0.9998
    1525        6283304        15.2450         1.0003         0.9996
    1526        6285286        15.2550         0.9993         1.0000
    1527        6300232        15.2650         1.0004         0.9999
    1528        6304776        15.2750         0.9998         1.0000
    1529        6313160        15.2850         0.9998         0.9999
    1530        6323792        15.2950         1.0002         1.0001
    1531        6332330        15.3050         1.0002         1.0003
    1532        6340496        15.3150         1.0002         1.0001
    1533        6345214        15.3250         0.9997         0.9996
    1534        6349778        15.3350         0.9991         0.9993
    1535        6363028        15.3450         0.9999         0.9999
    1536        6377050        15.3550         1.0008         1.0005
    1537        6382538        15.3650         1.0003         1.0005
    1538        6388686        15.3750         1.0000         0.9998
    1539        6392428        15.3850         0.9993         0.9996
    1540        6405912        15.3950         1.0001         1.0001
    1541        6418112        15.4050         1.0007         1.0001
    1542        6414820        15.4150         0.9989         0.9995
    1543        6428474        15.4250         0.9997         0.9996
    1544        6441740        15.4350         1.0005         1.0001
    1545        6445762        15.4450         0.9998         1.0001
    1546        6455866        15.4550         1.0001         0.9998
    1547        6462490        15.4650         0.9998         1.0001
    1548        6475942        15.4750         1.0006         1.0003
    1549        6481688        15.4850         1.0002         1.0002
    1550        6486302        15.4950         0.9996         0.9996
    1551        6492446        15.5050         0.9992         0.9996
    1552        6505196        15.5150         0.9999         0.9993
    1553        6506166        15.5250         0.9988         0.9994
    1554        6520530        15.5350         0.9997         0.9994
    1555        6528478        15.5450         0.9996         0.9996
    1556        6534442        15.5550         0.9993         0.9993
    1557        6543936        15.5650         0.9994         0.9995
    1558        6556410        15.5750         1.0000         0.9998
    1559        6563324        15.5850         0.9998         0.9999
    1560        6571280        15.5950         0.9997         0.9997
    1561        6578388        15.6050         0.9995         0.9995
    1562        6585884        15.6150         0.9994         0.9994
    1563        6595954        15.6250         0.9996         0.9997
    1564        6606924        15.6350         1.0000         1.0000
    1565        6615970        15.6450         1.0001         1.0001
    1566        6622260        15.6550         0.9998         0.9998
    1567        6630042        15.6650         0.9997         0.9999
    1568        6642920        15.6750         1.0004         1.0000
    1569        6647048        15.6850         0.9997         1.0000
    1570        6657852        15.6950         1.0000         0.9999
    1571        6664528        15.7050         0.9998         0.9996
    1572        6668062        15.7150         0.9990         0.9994
    1573        6681454        15.7250         0.9998         0.9995
    1574        6689952        15.7350         0.9998         0.9996
    1575        6696590        15.7450         0.9995         1.0000
    1576        6713872        15.7550         1.0008         1.0000
    1577        6712508        15.7650         0.9993         0.9998
    1578        6722348        15.7750         0.9995         0.9996
    1579        6733876        15.7850         1.0000         0.9993
    1580        6732430        15.7950         0.9985         0.9993
    1581        6751872        15.8050         1.0001         0.9995
    1582        6759088        15.8150         0.9999         1.0000
    1583        6766226        15.8250         0.9997         1.0000
    1584        6779738        15.8350         1.0004         1.0002
    1585        6785124        15.8450         1.0000         0.9999
    1586        6789620        15.8550         0.9994         0.9998
    1587        6807198        15.8650         1.0007         1.0003
    1588        6814924        15.8750         1.0006         1.0007
    1589        6821850        15.8850         1.0003         1.0001
    1590        6823206        15.8950         0.9993         0.9995
    1591        6834030        15.9050         0.9996         0.9997
    1592        6847522        15.9150         1.0003         1.0000
    1593        6850308        15.9250         0.9994         0.9996
    1594        6856330        15.9350         0.9991         0.9991
    1595        6867574        15.9450         0.9995         0.9996
    1596        6882956        15.9550         1.0004         1.0002
    1597        6889322        15.9650         1.0001         1.0002
    1598        6896058        15.9750         0.9998         0.9999
    1599        6904642        15.9850         0.9998         0.9998
    1600        6912876        15.9950         0.9998         0.9998
    1601        6922542        16.0050         0.9999         0.9998
    1602        6930390        16.0150         0.9998         1.0001
    1603        6944338        16.0250         1.0006         1.0002
    1604        6949046        16.0350         1.0000         1.0002
    1605        6958642        16.0450         1.0001         1.0001
    1606        6968822        16.0550         1.0003         1.0001
    1607        6973874        16.0650         0.9998         1.0001
    1608        6986818        16.0750         1.0004         1.0002
    1609        6994164        16.0850         1.0002         1.0005
    1610        7003426        16.0950         1.0003         0.9999
    1611        7002762        16.1050         0.9990         0.9996
    1612        7017750        16.1150         0.9999         0.9994
    1613        7023396        16.1250         0.9994         0.9998
    1614        7036676        16.1350         1.0001         0.9999
    1615        7046882        16.1450         1.0003         1.0004
    1616        7055172        16.1550         1.0002         0.9999
    1617        7056932        16.1650         0.9992         0.9997
    1618        7072778        16.1750         1.0003         1.0000
    1619        7082282        16.1850         1.0004         1.0002
    1620        7084820        16.1950         0.9995         0.9998
    1621        7096738        16.2050         0.9999         1.0000
    1622        7111128        16.2150         1.0007         1.0004
    1623        7116662        16.2250         1.0003         1.0004
    1624        7125560        16.2350         1.0003         1.0003
    1625        7135364        16.2450         1.0004         1.0003
    1626        7141984        16.2550         1.0001         1.0002
    1627        7149010        16.2650         0.9999         0.9997
    1628        7153204        16.2750         0.9992         0.9996
    1629        7168146        16.2850         1.0001         0.9996
    1630        7172718        16.2950         0.9995         0.9998
    1631        7184504        16.3050         0.9999         1.0001
    1632        7200156        16.3150         1.0009         1.0004
    1633        7201732        16.3250         0.9999         1.0001
    1634        7209088        16.3350         0.9997         0.9997
    1635        7220540        16.3450         1.0000         0.9999
    1636        7229670        16.3550         1.0001         1.0003
    1637        7243986        16.3650         1.0008         1.0006
    1638        7250094        16.3750         1.0004         1.0005
    1639        7255122        16.3850         0.9999         0.9998
    1640        7261810        16.3950         0.9996         1.0001
    1641        7280030        16.4050         1.0009         0.9999
    1642        7274432        16.4150         0.9989         0.9999
    1643        7292574        16.4250         1.0002         0.9995
    1644        7296816        16.4350         0.9995         0.9999
    1645        7309822        16.4450         1.0001         1.0002
    1646        7324514        16.4550         1.0009         1.0005
    1647        7326092        16.4650         0.9999         0.9999
    1648        7330936        16.4750         0.9993         0.9998
    1649        7352344        16.4850         1.0011         1.0006
    1650        7360690        16.4950         1.0010         1.0008
    1651        7361452        16.5050         0.9999         1.0004
    1652        7376666        16.5150         1.0007         1.0002
    1653        7380562        16.5250         1.0000         1.0004
    1654        7391034        16.5350         1.0002         1.0000
    1655        7396078        16.5450         0.9997         0.9998
    1656        7403316        16.5550         0.9995         0.9994
    1657        7411086        16.5650         0.9993         0.9995
    1658        7426444        16.5750         1.0002         1.0002
    1659        7440274        16.5850         1.0008         1.0005
    1660        7442860        16.5950         1.0000         1.0004
    1661        7455066        16.6050         1.0004         1.0001
    1662        7460772        16.6150         1.0000         1.0003
    1663        7474376        16.6250         1.0006         1.0005
    1664        7482932        16.6350         1.0005         1.0002
    1665        7481794        16.6450         0.9992         0.9996
    1666        7495808        16.6550         0.9999         0.9998
    1667        7510578        16.6650         1.0006         1.0004
    1668        7516472        16.6750         1.0002         1.0004
    1669        7523466        16.6850         0.9999         0.9999
    1670        7528216        16.6950         0.9994         0.9993
    1671        7535184        16.7050         0.9991         0.9997
    1672        7557490        16.7150         1.0009         1.0001
    1673        7558598        16.7250         0.9998         1.0004
    1674        7569424        16.7350         1.0000         0.9996
    1675        7571052        16.7450         0.9991         0.9994
    1676        7583624        16.7550         0.9995         0.9994
    1677        7596048        16.7650         1.0000         1.0001
    1678        7609478        16.7750         1.0005         1.0003
    1679        7614916        16.7850         1.0001         1.0003
    1680        7625890        16.7950         1.0003         1.0004
    1681        7638594        16.8050         1.0008         1.0005
    1682        7641306        16.8150         1.0000         0.9998
    1683        7644188        16.8250         0.9991         0.9999
    1684        7667930        16.8350         1.0011         1.0002
    1685        7667952        16.8450         0.9999         1.0004
    1686        7677112        16.8550         0.9999         0.9997
    1687        7683758        16.8650         0.9996         0.9996
    1688        7693824        16.8750         0.9997         1.0001
    1689        7712628        16.8850         1.0009         1.0000
    1690        7706506        16.8950         0.9990         0.9998
    1691        7724026        16.9050         1.0000         1.0000
    1692        7740682        16.9150         1.0010         1.0005
    1693        7739450        16.9250         0.9997         1.0003
    1694        7754030        16.9350         1.0004         1.0002
    1695        7764186        16.9450         1.0005         1.0003
    1696        7766266        16.9550         0.9996         0.9997
    1697        7772712        16.9650         0.9992         0.9995
    1698        7788688        16.9750         1.0001         0.9998
    1699        7796770        16.9850         1.0000         1.0003
    1700        7808534        16.9950         1.0003         0.9998
    1701        7807972        17.0050         0.9991         0.9995
    1702        7822492        17.0150         0.9997         0.9999
    1703        7841264        17.0250         1.0010         1.0005
    1704        7843214        17.0350         1.0000         1.0003
    1705        7852622        17.0450         1.0001         1.0002
    1706        7866996        17.0550         1.0007         1.0003
    1707        7869310        17.0650         0.9998         1.0001
    1708        7877366        17.0750         0.9997         0.9997
    1709        7888112        17.0850         0.9999         0.9998
    1710        7897356        17.0950         0.9999         1.0002
    1711        7911944        17.1050         1.0006         1.0001
    1712        7914426        17.1150         0.9997         1.0001
    1713        7929348        17.1250         1.0004         1.0003
    1714        7943326        17.1350         1.0010         1.0010
    1715        7951304        17.1450         1.0009         1.0006
    1716        7951534        17.1550         0.9997         1.0000
    1717        7962110        17.1650         0.9999         0.9998
    1718        7971894        17.1750         0.9999         0.9999
    1719        7979492        17.1850         0.9997         0.9996
    1720        7983778        17.1950         0.9991         0.9994
    1721        7998092        17.2050         0.9997         0.9996
    1722        8009114        17.2150         1.0000         0.9998
    1723        8014930        17.2250         0.9995         0.9999
    1724        8031388        17.2350         1.0004         1.0000
    1725        8036534        17.2450         0.9999         1.0002
    1726        8046638        17.2550         1.0000         0.9997
    1727        8051670        17.2650         0.9994         0.9998
    1728        8068534        17.2750         1.0004         1.0001
    1729        8078648        17.2850         1.0005         1.0005
    1730        8086926        17.2950         1.0003         1.0002
    1731        8093062        17.3050         0.9999         1.0002
    1732        8107292        17.3150         1.0006         1.0004
    1733        8117408        17.3250         1.0006         1.0007
    1734        8126510        17.3350         1.0006         1.0006
    1735        8132926        17.3450         1.0002         0.9999
    1736        8132132        17.3550         0.9990         0.9995
    1737        8148104        17.3650         0.9998         0.9994
    1738        8156266        17.3750         0.9997         0.9998
    1739        8168020        17.3850         0.9999         0.9998
    1740        8178994        17.3950         1.0001         1.0004
    1741        8195126        17.4050         1.0010         1.0005
    1742        8194806        17.4150         0.9998         1.0001
    1743        8204578        17.4250         0.9998         0.9997
    1744        8214702        17.4350         0.9999         1.0000
    1745        8225602        17.4450         1.0001         0.9998
    1746        8230646        17.4550         0.9995         0.9999
    1747        8247624        17.4650         1.0005         1.0003
    1748        8257566        17.4750         1.0005         1.0003
    1749        8259774        17.4850         0.9996         1.0001
    1750        8275374        17.4950         1.0004         0.9999
    1751        8277426        17.5050         0.9995         0.9997
    1752        8285444        17.5150         0.9993         0.9993
    1753        8294500        17.5250         0.9993         0.9992
    1754        8302964        17.5350         0.9991         0.9992
    1755        8313602        17.5450         0.9993         0.9994
    1756        8327946        17.5550         0.9999         0.9996
    1757        8334966        17.5650         0.9996         1.0000
    1758        8351032        17.5750         1.0004         0.9998
    1759        8352716        17.5850         0.9994         1.0001
    1760        8370798        17.5950         1.0005         0.9997
    1761        8368800        17.6050         0.9991         0.9997
    1762        8386116        17.6150         1.0000         0.9998
    1763        8399162        17.6250         1.0004         1.0002
    1764        8404652        17.6350         0.9999         1.0004
    1765        8418742        17.6450         1.0005         0.9999
    1766        8416700        17.6550         0.9991         0.9998
    1767        8434428        17.6650         1.0001         0.9996
    1768        8441650        17.6750         0.9998         1.0000
    1769        8452532        17.6850         1.0000         0.9998
    1770        8460140        17.6950         0.9997         0.9998
    1771        8469174        17.7050         0.9997         0.9997
    1772        8480210        17.7150         0.9998         1.0000
    1773        8494764        17.7250         1.0004         1.0003
    1774        8502868        17.7350         1.0003         1.0002
    1775        8508334        17.7450         0.9998         0.9998
    1776        8517320        17.7550         0.9997         0.9997
    1777        8528924        17.7650         0.9999         0.9999
    1778        8538942        17.7750         1.0000         1.0001
    1779        8550230        17.7850         1.0002         0.9999
    1780        8553146        17.7950         0.9994         0.9996
    1781        8564422        17.8050         0.9996         0.9998
    1782        8582304        17.8150         1.0006         1.0002
    1783        8588982        17.8250         1.0002         1.0005
    1784        8600840        17.8350         1.0005         1.0003
    1785        8605132        17.8450         0.9998         0.9997
    1786        8607996        17.8550         0.9991         0.9996
    1787        8632452        17.8650         1.0008         1.0005
    1788        8645382        17.8750         1.0012         1.0007
    1789        8639760        17.8850         0.9994         0.9999
    1790        8651064        17.8950         0.9996         0.9996
    1791        8665498        17.9050         1.0001         0.9997
    1792        8668454        17.9150         0.9993         1.0000
    1793        8690336        17.9250         1.0008         1.0002
    1794        8694226        17.9350         1.0001         1.0002
    1795        8699608        17.9450         0.9996         0.9997
    1796        8710418        17.9550         0.9997         0.9995
    1797        8718204        17.9650         0.9995         0.9998
    1798        8733854        17.9750         1.0002         0.9998
    1799        8737888        17.9850         0.9995         0.9997
    1800        8749648        17.9950         0.9998         0.9999
    1801        8765860        18.0050         1.0005         1.0002
    1802        8771240        18.0150         1.0000         1.0002
    1803        8782392        18.0250         1.0002         1.0002
    1804        8793802        18.0350         1.0004         0.9999
    1805        8794380        18.0450         0.9993         0.9999
    1806        8814372        18.0550         1.0005         0.9999
    1807        8818500        18.0650         0.9998         1.0003
    1808        8832786        18.0750         1.0003         1.0000
    1809        8837362        18.0850         0.9998         1.0001
    1810        8852426        18.0950         1.0004         1.0000
    1811        8858970        18.1050         1.0000         1.0003
    1812        8871804        18.1150         1.0003         1.0000
    1813        8875948        18.1250         0.9997         1.0000
    1814        8888448        18.1350         1.0000         0.9999
    1815        8898482        18.1450         1.0000         1.0000
    1816        8908696        18.1550         1.0001         1.0003
    1817        8923252        18.1650         1.0006         1.0003
    1818        8927018        18.1750         0.9999         1.0003
    1819        8940044        18.1850         1.0003         1.0001
    1820        8947450        18.1950         1.0000         1.0001
    1821        8956190        18.2050         0.9999         0.9998
    1822        8963758        18.2150         0.9996         0.9997
    1823        8976348        18.2250         0.9999         0.9999
    1824        8988808        18.2350         1.0002         1.0001
    1825        8997436        18.2450         1.0001         1.0003
    1826        9011806        18.2550         1.0006         1.0005
    1827        9022474        18.2650         1.0007         1.0006
    1828        9024514        18.2750         0.9998         0.9997
    1829        9024744        18.2850         0.9987         0.9991
    1830        9044268        18.2950         0.9998         0.9998
    1831        9062926        18.3050         1.0008         1.0003
    1832        9062926        18.3150         0.9997         1.0002
    1833        9078082        18.3250         1.0003         1.0001
    1834        9089688        18.3350         1.0004         1.0006
    1835        9100062        18.3450         1.0005         1.0002
    1836        9098642        18.3550         0.9993         0.9994
    1837        9105850        18.3650         0.9990         0.9994
    1838        9129988        18.3750         1.0005         0.9999
    1839        9134634        18.3850         0.9999         1.0003
    1840        9149160        18.3950         1.0004         1.0003
    1841        9160140        18.4050         1.0005         1.0005
    1842        9168094        18.4150         1.0003         1.0003
    1843        9174858        18.4250         1.0000         1.0001
    1844        9186162        18.4350         1.0001         0.9999
    1845        9192744        18.4450         0.9998         1.0000
    1846        9206754        18.4550         1.0002         1.0002
    1847        9218964        18.4650         1.0004         1.0001
    1848        9219996        18.4750         0.9995         0.9999
    1849        9235582        18.4850         1.0001         0.9999
    1850        9244180        18.4950         0.9999         0.9998
    1851        9247826        18.5050         0.9992         0.9996
    1852        9265118        18.5150         1.0000         0.9998
    1853        9274866        18.5250         1.0000         0.9999
    1854        9281576        18.5350         0.9996         0.9999
    1855        9296246        18.5450         1.0001         0.9999
    1856        9304964        18.5550         1.0000         1.0001
    1857        9315138        18.5650         1.0000         1.0000
    1858        9324816        18.5750         1.0000         0.9999
    1859        9332834        18.5850         0.9998         1.0001
    1860        9349992        18.5950         1.0005         0.9999
    1861        9348676        18.6050         0.9993         1.0000
    1862        9367800        18.6150         1.0003         0.9997
    1863        9372898        18.6250         0.9997         1.0002
    1864        9389818        18.6350         1.0005         1.0000
    1865        9391514        18.6450         0.9996         0.9997
    1866        9397668        18.6550         0.9992         0.9995
    1867        9415972        18.6650         1.0000         0.9995
    1868        9420088        18.6750         0.9994         0.9998
    1869        9437578        18.6850         1.0002         0.9999
    1870        9447910        18.6950         1.0002         1.0003
    1871        9458710        18.7050         1.0003         1.0002
    1872        9466392        18.7150         1.0000         1.0001
    1873        9478642        18.7250         1.0003         1.0003
    1874        9491930        18.7350         1.0006         1.0005
    1875        9497746        18.7450         1.0001         1.0001
    1876        9501192        18.7550         0.9994         0.9995
    1877        9511224        18.7650         0.9994         0.9995
    1878        9526022        18.7750         0.9999         0.9999
    1879        9539178        18.7850         1.0002         1.0002
    1880        9548000        18.7950         1.0001         1.0001
    1881        9557892        18.8050         1.0001         1.0003
    1882        9574958        18.8150         1.0008         1.0007
    1883        9583420        18.8250         1.0006         1.0002
    1884        9577808        18.8350         0.9989         0.9995
    1885        9594670        18.8450         0.9996         0.9996
    1886        9610624        18.8550         1.0002         0.9999
    1887        9611778        18.8650         0.9993         0.9997
    1888        9624018        18.8750         0.9995         0.9991
    1889        9626660        18.8850         0.9987         0.9993
    1890        9649188        18.8950         1.0000         0.9996
    1891        9658648        18.9050         0.9999         0.9999
    1892        9663770        18.9150         0.9994         0.9998
    1893        9682570        18.9250         1.0003         1.0000
    1894        9689984        18.9350         1.0000         1.0000
    1895        9697566        18.9450         0.9997         1.0001
    1896        9718198        18.9550         1.0008         1.0004
    1897        9724026        18.9650         1.0003         1.0004
    1898        9728392        18.9750         0.9997         0.9999
    1899        9740330        18.9850         0.9999         0.9998
    1900        9750514        18.9950         0.9999         1.0000
    1901        9763012        19.0050         1.0001         1.0000
    1902        9770924        19.0150         0.9999         0.9999
    1903        9779218        19.0250         0.9997         0.9996
    1904        9786300        19.0350         0.9994         0.9995
    1905        9801226        19.0450         0.9998         0.9998
    1906        9816396        19.0550         1.0003         1.0003
    1907        9828192        19.0650         1.0005         1.0005
    1908        9838972        19.0750         1.0005         1.0004
    1909        9845744        19.0850         1.0002         1.0003
    1910        9855378        19.0950         1.0001         0.9998
    1911        9861680        19.1050         0.9997         1.0003
    1912        9887388        19.1150         1.0012         1.0003
    1913        9880980        19.1250         0.9996         1.0002
    1914        9895944        19.1350         1.0000         0.9999
    1915        9910760        19.1450         1.0005         1.0002
    1916        9913160        19.1550         0.9997         0.9999
    1917        9925008        19.1650         0.9998         0.9998
    1918        9939704        19.1750         1.0003         1.0002
    1919        9950152        19.1850         1.0003         1.0001
    1920        9953294        19.1950         0.9995         0.9999
    1921        9970198        19.2050         1.0002         0.9999
    1922        9977898        19.2150         0.9999         0.9999
    1923        9986404        19.2250         0.9997         1.0001
    1924       10004556        19.2350         1.0005         0.9999
    1925       10003544        19.2450         0.9994         1.0001
    1926       10024518        19.2550         1.0004         0.9998
    1927       10023760        19.2650         0.9993         0.9994
    1928       10028844        19.2750         0.9988         0.9991
    1929       10052996        19.2850         1.0001         0.9999
    1930       10068420        19.2950         1.0006         1.0004
    1931       10071148        19.3050         0.9999         1.0003
    1932       10086228        19.3150         1.0003         1.0001
    1933       10093910        19.3250         1.0001         1.0001
    1934       10102026        19.3350         0.9998         0.9999
    1935       10112866        19.3450         0.9999         1.0000
    1936       10126028        19.3550         1.0001         0.9998
    1937       10128168        19.3650         0.9993         0.9997
    1938       10143022        19.3750         0.9998         0.9995
    1939       10150354        19.3850         0.9994         0.9996
    1940       10164248        19.3950         0.9998         0.9999
    1941       10183244        19.4050         1.0006         1.0006
    1942       10195418        19.4150         1.0008         1.0005
    1943       10195198        19.4250         0.9997         1.0002
    1944       10212816        19.4350         1.0004         1.0001
    1945       10220876        19.4450         1.0002         1.0002
    1946       10228394        19.4550         0.9999         1.0001
    1947       10243380        19.4650         1.0003         1.0000
    1948       10245988        19.4750         0.9996         0.9999
    1949       10261546        19.4850         1.0000         0.9997
    1950       10268652        19.4950         0.9997         1.0001
    1951       10287658        19.5050         1.0005         1.0002
    1952       10295098        19.5150         1.0002         1.0004
    1953       10305546        19.5250         1.0002         1.0002
    1954       10314272        19.5350         1.0000         1.0000
    1955       10323414        19.5450         0.9999         1.0000
    1956       10335814        19.5550         1.0001         1.0001
    1957       10348098        19.5650         1.0003         1.0004
    1958       10359862        19.5750         1.0004         0.9999
    1959       10353320        19.5850         0.9987         0.9992
    1960       10367628        19.5950         0.9991         0.9990
    1961       10385850        19.6050         0.9998         0.9996
    1962       10396340        19.6150         0.9998         0.9999
    1963       10408768        19.6250         1.0000         0.9997
    1964       10414754        19.6350         0.9995         1.0000
    1965       10437598        19.6450         1.0007         1.0002
    1966       10440690        19.6550         1.0000         1.0000
    1967       10444562        19.6650         0.9993         0.9999
    1968       10469816        19.6750         1.0007         1.0001
    1969       10470904        19.6850         0.9998         1.0002
    1970       10483208        19.6950         1.0000         1.0001
    1971       10501220        19.7050         1.0007         1.0005
    1972       10507422        19.7150         1.0003         1.0002
    1973       10511084        19.7250         0.9996         1.0000
    1974       10531358        19.7350         1.0005         1.0003
    1975       10542156        19.7450         1.0005         1.0004
    1976       10545446        19.7550         0.9998         1.0002
    1977       10560476        19.7650         1.0002         0.9998
    1978       10561872        19.7750         0.9993         0.9998
    1979       10580598        19.7850         1.0001         0.9998
    1980       10591408        19.7950         1.0001         1.0003
    1981       10607198        19.8050         1.0006         1.0004
    1982       10615256        19.8150         1.0003         1.0004
    1983       10623160        19.8250         1.0001         1.0000
    1984       10630394        19.8350         0.9998         1.0001
    1985       10649766        19.8450         1.0006         1.0002
    1986       10654128        19.8550         1.0000         1.0002
    1987       10663752        19.8650         0.9999         0.9998
    1988       10672644        19.8750         0.9997         0.9997
    1989       10685146        19.8850         0.9999         0.9999
    1990       10699954        19.8950         1.0002         1.0002
    1991       10710222        19.9050         1.0002         1.0001
    1992       10716140        19.9150         0.9997         0.9999
    1993       10728686        19.9250         0.9999         0.9999
    1994       10741400        19.9350         1.0001         0.9999
    1995       10745076        19.9450         0.9994         0.9997
    1996       10757580        19.9550         0.9996         0.9994
    1997       10766926        19.9650         0.9995         0.9998
    1998       10786450        19.9750         1.0003         0.9998
    1999       10788724        19.9850         0.9995         0.9997
    2000       10800180        19.9950         0.9995         0.9995
    2001       10816786        20.0050         1.0001         1.0001
    2002       10833204        20.0150         1.0006         1.0005
    2003       10841106        20.0250         1.0003         1.0003
    2004       10849010        20.0350         1.0000         1.0001
    2005       10862616        20.0450         1.0003         1.0003
    2006       10874834        20.0550         1.0004         1.0002
    2007       10876764        20.0650         0.9996         0.9999
    2008       10888546        20.0750         0.9997         0.9997
    2009       10899416        20.0850         0.9997         0.9994
    2010       10899266        20.0950         0.9987         0.9990
    2011       10914608        20.1050         0.9991         0.9990
    2012       10931868        20.1150         0.9997         0.9997
    2013       10948152        20.1250         1.0002         1.0002
    2014       10962346        20.1350         1.0005         1.0003
    2015       10971068        20.1450         1.0003         1.0005
    2016       10988886        20.1550         1.0009         1.0008
    2017       10997368        20.1650         1.0007         1.0005
    2018       10996728        20.1750         0.9996         0.9999
    2019       11007892        20.1850         0.9997         0.9995
    2020       11021180        20.1950         0.9999         1.0003
    2021       11045608        20.2050         1.0011         1.0003
    2022       11038572        20.2150         0.9995         1.0003
    2023       11059012        20.2250         1.0003         0.9998
    2024       11065524        20.2350         0.9999         1.0004
    2025       11084582        20.2450         1.0007         1.0003
    2026       11088932        20.2550         1.0001         1.0003
    2027       11100104        20.2650         1.0001         1.0001
    2028       11110922        20.2750         1.0001         0.9998
    2029       11117034        20.2850         0.9996         1.0003
    2030       11145822        20.2950         1.0012         1.0005
    2031       11144536        20.3050         1.0001         1.0007
    2032       11156982        20.3150         1.0003         1.0000
    2033       11161296        20.3250         0.9997         0.9997
    2034       11168822        20.3350         0.9994         0.9997
    2035       11190658        20.3450         1.0003         0.9999
    2036       11194316        20.3550         0.9997         0.9998
    2037       11204104        20.3650         0.9996         0.9998
    2038       11224394        20.3750         1.0004         0.9999
    2039       11224492        20.3850         0.9994         0.9999
    2040       11240482        20.3950         0.9999         0.9998
    2041       11253030        20.4050         1.0000         0.9998
    2042       11255854        20.4150         0.9993         0.9996
    2043       11273332        20.4250         0.9999         0.9996
    2044       11285068        20.4350         0.9999         1.0002
    2045       11304240        20.4450         1.0006         1.0002
    2046       11306238        20.4550         0.9998         1.0002
    2047       11320774        20.4650         1.0001         1.0000
    2048       11333770        20.4750         1.0003         1.0002
    2049       11343280        20.4850         1.0002         1.0003
    2050       11355928        20.4950         1.0003         1.0001
    2051       11363232        20.5050         1.0000         1.0003
    2052       11380236        20.5150         1.0005         1.0002
    2053       11385652        20.5250         1.0000         1.0004
    2054       11401782        20.5350         1.0004         1.0000
    2055       11401786        20.5450         0.9995         0.9999
    2056       11417818        20.5550         0.9999         0.9997
    2057       11426848        20.5650         0.9997         0.9998
    2058       11438910        20.5750         0.9998         0.9999
    2059       11457702        20.5850         1.0005         1.0003
    2060       11467816        20.5950         1.0004         1.0002
    2061       11470854        20.6050         0.9997         0.9999
    2062       11486156        20.6150         1.0000         1.0000
    2063       11501286        20.6250         1.0004         1.0003
    2064       11509840        20.6350         1.0002         1.0000
    2065       11511616        20.6450         0.9993         0.9997
    2066       11529794        20.6550         1.0000         0.9999
    2067       11545946        20.6650         1.0004         1.0001
    2068       11548460        20.6750         0.9996         0.9999
    2069       11562304        20.6850         0.9999         0.9996
    2070       11570604        20.6950         0.9996         0.9998
    2071       11588096        20.7050         1.0002         1.0001
    2072       11601498        20.7150         1.0004         1.0003
    2073       11610498        20.7250         1.0002         1.0002
    2074       11619656        20.7350         1.0000         0.9999
    2075       11627036        20.7450         0.9997         0.9998
    2076       11640766        20.7550         0.9999         0.9998
    2077       11652284        20.7650         0.9999         1.0000
    2078       11665708        20.7750         1.0001         1.0000
    2079       11675540        20.7850         1.0000         0.9999
    2080       11683944        20.7950         0.9997         1.0000
    2081       11701484        20.8050         1.0003         0.9999
    2082       11704840        20.8150         0.9996         1.0000
    2083       11723578        20.8250         1.0002         1.0000
    2084       11735542        20.8350         1.0003         1.0003
    2085       11742716        20.8450         0.9999         0.9999
    2086       11749014        20.8550         0.9995         0.9998
    2087       11769250        20.8650         1.0003         1.0000
    2088       11777912        20.8750         1.0001         1.0001
    2089       11785824        20.8850         0.9998         0.9997
    2090       11792172        20.8950         0.9993         0.9994
    2091       11804014        20.9050         0.9994         0.9994
    2092       11818316        20.9150         0.9997         0.9997
    2093       11833782        20.9250         1.0000         0.9998
    2094       11842246        20.9350         0.9998         1.0001
    2095       11862196        20.9450         1.0005         1.0001
    2096       11866968        20.9550         0.9999         1.0002
    2097       11879242        20.9650         1.0000         0.9999
    2098       11889560        20.9750         0.9999         1.0002
    2099       11908390        20.9850         1.0006         1.0003
    2100       11915116        20.9950         1.0002         1.0002
    2101       11922694        21.0050         0.9999         1.0000
    2102       11934626        21.0150         0.9999         0.9997
    2103       11939926        21.0250         0.9994         0.9997
    2104       11960888        21.0350         1.0002         1.0000
    2105       11972092        21.0450         1.0002         1.0002
    2106       11980056        21.0550         0.9999         1.0000
    2107       11994830        21.0650         1.0002         1.0001
    2108       12007376        21.0750         1.0003         1.0002
    2109       12015198        21.0850         1.0000         1.0000
    2110       12025384        21.0950         0.9999         0.9999
    2111       12037296        21.1050         0.9999         0.9999
    2112       12048440        21.1150         0.9999         0.9999
    2113       12058696        21.1250         0.9998         0.9997
    2114       12065568        21.1350         0.9994         0.9997
    2115       12085630        21.1450         1.0001         0.9997
    2116       12091916        21.1550         0.9997         1.0001
    2117       12114000        21.1650         1.0006         1.0003
    2118       12121850        21.1750         1.0003         1.0003
    2119       12127202        21.1850         0.9998         0.9999
    2120       12141824        21.1950         1.0001         1.0003
    2121       12165496        21.2050         1.0011         1.0006
    2122       12163726        21.2150         1.0000         1.0002
    2123       12169680        21.2250         0.9995         0.9995
    2124       12181920        21.2350         0.9996         0.9996
    2125       12200074        21.2450         1.0001         1.0002
    2126       12215332        21.2550         1.0004         1.0000
    2127       12213166        21.2650         0.9993         1.0001
    2128       12241518        21.2750         1.0007         1.0000
    2129       12242734        21.2850         0.9999         1.0003
    2130       12259810        21.2950         1.0003         1.0001
    2131       12271328        21.3050         1.0003         1.0003
    2132       12281108        21.3150         1.0002         1.0003
    2133       12291366        21.3250         1.0001         0.9997
    2134       12293078        21.3350         0.9993         1.0000
    2135       12326662        21.3450         1.0011         1.0002
    2136       12322398        21.3550         0.9998         1.0002
    2137       12331540        21.3650         0.9996         0.9997
    2138       12348106        21.3750         1.0000         0.9998
    2139       12355964        21.3850         0.9997         0.9998
    2140       12366604        21.3950         0.9996         0.9996
    2141       12382008        21.4050         0.9999         1.0000
    2142       12399566        21.4150         1.0004         1.0002
    2143       12408072        21.4250         1.0002         1.0004
    2144       12425370        21.4350         1.0006         1.0004
    2145       12430502        21.4450         1.0001         1.0000
    2146       12432246        21.4550         0.9993         0.9996
    2147       12453564        21.4650         1.0001         1.0001
    2148       12472404        21.4750         1.0007         1.0003
    2149       12469486        21.4850         0.9995         0.9998
    2150       12481748        21.4950         0.9996         0.9995
    2151       12497102        21.5050         0.9999         0.9999
    2152       12514960        21.5150         1.0004         1.0003
    2153       12525746        21.5250         1.0003         1.0001
    2154       12528144        21.5350         0.9996         0.9997
    2155       12541916        21.5450         0.9997         0.9997
    2156       12560114        21.5550         1.0002         1.0002
    2157       12572138        21.5650         1.0003         1.0001
    2158       12575514        21.5750         0.9996         1.0001
    2159       12598642        21.5850         1.0005         1.0000
    2160       12601952        21.5950         0.9999         1.0003
    2161       12623300        21.6050         1.0006         1.0003
    2162       12629714        21.6150         1.0002         1.0003
    2163       12639384        21.6250         1.0001         1.0003
    2164       12659992        21.6350         1.0008         1.0003
    2165       12659652        21.6450         0.9998         1.0003
    2166       12677594        21.6550         1.0003         0.9998
    2167       12679154        21.6650         0.9995         1.0000
    2168       12701774        21.6750         1.0004         0.9998
    2169       12701298        21.6850         0.9994         0.9999
    2170       12722800        21.6950         1.0002         0.9998
    2171       12729582        21.7050         0.9998         1.0000
    2172       12742368        21.7150         0.9999         0.9998
    2173       12754198        21.7250         0.9999         0.9999
    2174       12766678        21.7350         0.9999         1.0000
    2175       12780258        21.7450         1.0001         0.9999
    2176       12785856        21.7550         0.9996         0.9999
    2177       12802706        21.7650         1.0000         0.9996
    2178       12806464        21.7750         0.9994         0.9998
    2179       12830168        21.7850         1.0003         0.9998
    2180       12834518        21.7950         0.9997         1.0000
    2181       12850732        21.8050         1.0001         0.9999
    2182       12861290        21.8150         1.0000         1.0001
    2183       12877924        21.8250         1.0003         1.0003
    2184       12893202        21.8350         1.0006         1.0006
    2185       12904232        21.8450         1.0005         1.0005
    2186       12909622        21.8550         1.0000         1.0002
    2187       12921258        21.8650         1.0000         0.9996
    2188       12921924        21.8750         0.9992         0.9999
    2189       12953956        21.8850         1.0007         0.9999
    2190       12948648        21.8950         0.9994         1.0000
    2191       12967268        21.9050         0.9999         0.9999
    2192       12985242        21.9150         1.0004         1.0001
    2193       12985690        21.9250         0.9995         0.9998
    2194       12999352        21.9350         0.9997         0.9996
    2195       13011642        21.9450         0.9997         0.9996
    2196       13022024        21.9550         0.9996         0.9999
    2197       13042186        21.9650         1.0002         0.9997
    2198       13039374        21.9750         0.9991         0.9995
    2199       13058172        21.9850         0.9996         0.9995
    2200       13075452        21.9950         1.0000         1.0000
    2201       13089018        22.0050         1.0002         1.0003
    2202       13108464        22.0150         1.0007         1.0006
    2203       13116286        22.0250         1.0004         1.0003
    2204       13115332        22.0350         0.9995         0.9998
    2205       13132762        22.0450         0.9999         0.9998
    2206       13147930        22.0550         1.0001         1.0000
    2207       13152884        22.0650         0.9996         0.9997
    2208       13164498        22.0750         0.9996         0.9997
    2209       13184186        22.0850         1.0002         0.9999
    2210       13189582        22.0950         0.9997         0.9998
    2211       13200292        22.1050         0.9996         0.9996
    2212       13216392        22.1150         0.9999         0.9998
    2213       13228838        22.1250         0.9999         0.9999
    2214       13241792        22.1350         1.0000         1.0001
    2215       13259510        22.1450         1.0004         1.0002
    2216       13265278        22.1550         1.0000         1.0001
    2217       13277188        22.1650         1.0000         1.0000
    2218       13291558        22.1750         1.0001         0.9999
    2219       13297356        22.1850         0.9997         0.9999
    2220       13314066        22.1950         1.0000         0.9999
    2221       13326944        22.2050         1.0001         1.0000
    2222       13336940        22.2150         0.9999         1.0001
    2223       13354814        22.2250         1.0004         1.0002
    2224       13363240        22.2350         1.0001         1.0002
    2225       13371288        22.2450         0.9998         0.9997
    2226       13376916        22.2550         0.9993         0.9995
    2227       13395830        22.2650         0.9998         0.9997
    2228       13410902        22.2750         1.0001         1.0003
    2229       13431254        22.2850         1.0007         1.0004
    2230       13434100        22.2950         1.0000         1.0001
    2231       13441074        22.3050         0.9996         0.9999
    2232       13460728        22.3150         1.0002         0.9997
    2233       13457106        22.3250         0.9990         0.9995
    2234       13477746        22.3350         0.9997         0.9995
    2235       13495680        22.3450         1.0001         1.0002
    2236       13516078        22.3550         1.0007         1.0005
    2237       13522266        22.3650         1.0003         1.0002
    2238       13524438        22.3750         0.9995         0.9999
    2239       13542390        22.3850         1.0000         0.9996
    2240       13546604        22.3950         0.9994         0.9996
    2241       13562328        22.4050         0.9997         0.9999
    2242       13589058        22.4150         1.0007         1.0002
    2243       13587352        22.4250         0.9997         1.0000
    2244       13600166        22.4350         0.9998         1.0000
    2245       13627310        22.4450         1.0009         1.0004
    2246       13625124        22.4550         0.9998         1.0001
    2247       13632676        22.4650         0.9995         0.9996
    2248       13650746        22.4750         0.9999         0.9999
    2249       13668966        22.4850         1.0004         1.0003
    2250       13678002        22.4950         1.0001         1.0001
    2251       13684306        22.5050         0.9997         0.9999
    2252       13703060        22.5150         1.0002         0.9999
    2253       13711992        22.5250         1.0000         1.0001
    2254       13727064        22.5350         1.0002         0.9999
    2255       13734508        22.5450         0.9998         1.0001
    2256       13755450        22.5550         1.0005         1.0001
    2257       13760952        22.5650         1.0000         1.0002
    2258       13775916        22.5750         1.0002         0.9999
    2259       13780594        22.5850         0.9996         0.9999
    2260       13799636        22.5950         1.0001         1.0000
    2261       13813824        22.6050         1.0003         1.0002
    2262       13822812        22.6150         1.0000         1.0003
    2263       13839240        22.6250         1.0003         0.9999
    2264       13838410        22.6350         0.9994         0.9999
    2265       13863812        22.6450         1.0003         0.9999
    2266       13872110        22.6550         1.0001         1.0002
    2267       13883500        22.6650         1.0000         1.0001
    2268       13898386        22.6750         1.0002         1.0001
    2269       13905674        22.6850         0.9998         0.9997
    2270       13910308        22.6950         0.9993         0.9995
    2271       13931710        22.7050         0.9999         0.9999
    2272       13948778        22.7150         1.0003         1.0000
    2273       13952048        22.7250         0.9996         1.0000
    2274       13974636        22.7350         1.0004         1.0000
    2275       13983518        22.7450         1.0001         1.0003
    2276       13997220        22.7550         1.0002         1.0003
    2277       14011290        22.7650         1.0003         1.0001
    2278       14015194        22.7750         0.9997         1.0001
    2279       14037408        22.7850         1.0005         1.0001
    2280       14041516        22.7950         0.9999         1.0000
    2281       14051186        22.8050         0.9997         0.9997
    2282       14065024        22.8150         0.9998         0.9999
    2283       14084252        22.8250         1.0003         1.0002
    2284       14093342        22.8350         1.0000         0.9998
    2285       14092600        22.8450         0.9991         0.9997
    2286       14120326        22.8550         1.0002         0.9996
    2287       14121578        22.8650         0.9994         0.9998
    2288       14140524        22.8750         0.9999         0.9998
    2289       14156132        22.8850         1.0001         0.9999
    2290       14161308        22.8950         0.9996         0.9998
    2291       14178618        22.9050         1.0000         1.0001
    2292       14199248        22.9150         1.0005         1.0000
    2293       14192150        22.9250         0.9992         0.9998
    2294       14219976        22.9350         1.0003         1.0000
    2295       14238328        22.9450         1.0007         1.0005
    2296       14243474        22.9550         1.0002         1.0004
    2297       14258750        22.9650         1.0004         1.0002
    2298       14266746        22.9750         1.0001         1.0002
    2299       14281970        22.9850         1.0002         1.0001
    2300       14288822        22.9950         0.9999         1.0001
    2301       14303640        23.0050         1.0000         0.9998
    2302       14306228        23.0150         0.9993         0.9994
    2303       14318432        23.0250         0.9993         0.9996
    2304       14343522        23.0350         1.0002         0.9996
    2305       14338242        23.0450         0.9990         0.9994
    2306       14358946        23.0550         0.9995         0.9995
    2307       14384288        23.0650         1.0004         1.0003
    2308       14397256        23.0750         1.0005         1.0003
    2309       14398480        23.0850         0.9997         0.9998
    2310       14411538        23.0950         0.9997         0.9999
    2311       14433646        23.1050         1.0004         1.0001
    2312       14438756        23.1150         0.9999         1.0000
    2313       14450696        23.1250         0.9998         1.0002
    2314       14481642        23.1350         1.0011         1.0005
    2315       14478202        23.1450         1.0000         1.0004
    2316       14490664        23.1550         1.0000         0.9999
    2317       14504738        23.1650         1.0001         1.0002
    2318       14521290        23.1750         1.0004         1.0003
    2319       14529326        23.1850         1.0001         1.0001
    2320       14539018        23.1950         0.9999         1.0001
    2321       14561654        23.2050         1.0006         1.0004
    2322       14572934        23.2150         1.0005         1.0005
    2323       14578132        23.2250         1.0000         1.0000
    2324       14588846        23.2350         0.9999         1.0000
    2325       14610344        23.2450         1.0005         1.0002
    2326       14618144        23.2550         1.0002         1.0003
    2327       14629236        23.2650         1.0001         1.0001
    2328       14641420        23.2750         1.0000         1.0000
    2329       14650586        23.2850         0.9998         0.9997
    2330       14660394        23.2950         0.9996         0.9999
    2331       14683354        23.3050         1.0003         1.0000
    2332       14689572        23.3150         0.9999         1.0000
    2333       14701708        23.3250         0.9998         0.9999
    2334       14718036        23.3350         1.0001         0.9998
    2335       14720466        23.3450         0.9994         0.9998
    2336       14744136        23.3550         1.0002         0.9999
    2337       14756780        23.3650         1.0002         1.0003
    2338       14770730        23.3750         1.0002         1.0002
