
     ######################################################################
   ##########################################################################
  ###                                                                      ###
 ###            Tinker  ---  Software Tools for Molecular Design            ###
 ##                                                                          ##
 ##                      Version 8.10.2   February 2022                      ##
 ##                                                                          ##
 ##               Copyright (c)  Jay William Ponder  1990-2022               ##
 ###                           All Rights Reserved                          ###
  ###                                                                      ###
   ##########################################################################
     ######################################################################


 Number of Coordinate Frames :           401
 Number of Distance Bins :              2338

 Reading the Coordinates Archive File :

    Processing Coordinate Frame          100
    Processing Coordinate Frame          200
    Processing Coordinate Frame          300
    Processing Coordinate Frame          400
    Processing Coordinate Frame          401

 Pairwise Radial Distribution Function :

       First Name or Type :  2          Second Name or Type :  2     

     Bin         Counts       Distance       Raw g(r)    Smooth g(r)

       1              0         0.0050         0.0000         0.0000
       2              0         0.0150         0.0000         0.0000
       3              0         0.0250         0.0000         0.0000
       4              0         0.0350         0.0000         0.0000
       5              0         0.0450         0.0000         0.0000
       6              0         0.0550         0.0000         0.0000
       7              0         0.0650         0.0000         0.0000
       8              0         0.0750         0.0000         0.0000
       9              0         0.0850         0.0000         0.0000
      10              0         0.0950         0.0000         0.0000
      11              0         0.1050         0.0000         0.0000
      12              0         0.1150         0.0000         0.0000
      13              0         0.1250         0.0000         0.0000
      14              0         0.1350         0.0000         0.0000
      15              0         0.1450         0.0000         0.0000
      16              0         0.1550         0.0000         0.0000
      17              0         0.1650         0.0000         0.0000
      18              0         0.1750         0.0000         0.0000
      19              0         0.1850         0.0000         0.0000
      20              0         0.1950         0.0000         0.0000
      21              0         0.2050         0.0000         0.0000
      22              0         0.2150         0.0000         0.0000
      23              0         0.2250         0.0000         0.0000
      24              0         0.2350         0.0000         0.0000
      25              0         0.2450         0.0000         0.0000
      26              0         0.2550         0.0000         0.0000
      27              0         0.2650         0.0000         0.0000
      28              0         0.2750         0.0000         0.0000
      29              0         0.2850         0.0000         0.0000
      30              0         0.2950         0.0000         0.0000
      31              0         0.3050         0.0000         0.0000
      32              0         0.3150         0.0000         0.0000
      33              0         0.3250         0.0000         0.0000
      34              0         0.3350         0.0000         0.0000
      35              0         0.3450         0.0000         0.0000
      36              0         0.3550         0.0000         0.0000
      37              0         0.3650         0.0000         0.0000
      38              0         0.3750         0.0000         0.0000
      39              0         0.3850         0.0000         0.0000
      40              0         0.3950         0.0000         0.0000
      41              0         0.4050         0.0000         0.0000
      42              0         0.4150         0.0000         0.0000
      43              0         0.4250         0.0000         0.0000
      44              0         0.4350         0.0000         0.0000
      45              0         0.4450         0.0000         0.0000
      46              0         0.4550         0.0000         0.0000
      47              0         0.4650         0.0000         0.0000
      48              0         0.4750         0.0000         0.0000
      49              0         0.4850         0.0000         0.0000
      50              0         0.4950         0.0000         0.0000
      51              0         0.5050         0.0000         0.0000
      52              0         0.5150         0.0000         0.0000
      53              0         0.5250         0.0000         0.0000
      54              0         0.5350         0.0000         0.0000
      55              0         0.5450         0.0000         0.0000
      56              0         0.5550         0.0000         0.0000
      57              0         0.5650         0.0000         0.0000
      58              0         0.5750         0.0000         0.0000
      59              0         0.5850         0.0000         0.0000
      60              0         0.5950         0.0000         0.0000
      61              0         0.6050         0.0000         0.0000
      62              0         0.6150         0.0000         0.0000
      63              0         0.6250         0.0000         0.0000
      64              0         0.6350         0.0000         0.0000
      65              0         0.6450         0.0000         0.0000
      66              0         0.6550         0.0000         0.0000
      67              0         0.6650         0.0000         0.0000
      68              0         0.6750         0.0000         0.0000
      69              0         0.6850         0.0000         0.0000
      70              0         0.6950         0.0000         0.0000
      71              0         0.7050         0.0000         0.0000
      72              0         0.7150         0.0000         0.0000
      73              0         0.7250         0.0000         0.0000
      74              0         0.7350         0.0000         0.0000
      75              0         0.7450         0.0000         0.0000
      76              0         0.7550         0.0000         0.0000
      77              0         0.7650         0.0000         0.0000
      78              0         0.7750         0.0000         0.0000
      79              0         0.7850         0.0000         0.0000
      80              0         0.7950         0.0000         0.0000
      81              0         0.8050         0.0000         0.0000
      82              0         0.8150         0.0000         0.0000
      83              0         0.8250         0.0000         0.0000
      84              0         0.8350         0.0000         0.0000
      85              0         0.8450         0.0000         0.0000
      86              0         0.8550         0.0000         0.0000
      87              0         0.8650         0.0000         0.0000
      88              0         0.8750         0.0000         0.0000
      89              0         0.8850         0.0000         0.0000
      90              0         0.8950         0.0000         0.0000
      91              0         0.9050         0.0000         0.0000
      92              0         0.9150         0.0000         0.0000
      93              0         0.9250         0.0000         0.0000
      94              0         0.9350         0.0000         0.0000
      95              0         0.9450         0.0000         0.0000
      96              0         0.9550         0.0000         0.0000
      97              0         0.9650         0.0000         0.0000
      98              0         0.9750         0.0000         0.0000
      99              0         0.9850         0.0000         0.0000
     100              0         0.9950         0.0000         0.0000
     101              0         1.0050         0.0000         0.0000
     102              0         1.0150         0.0000         0.0000
     103              0         1.0250         0.0000         0.0000
     104              0         1.0350         0.0000         0.0000
     105              0         1.0450         0.0000         0.0000
     106              0         1.0550         0.0000         0.0000
     107              0         1.0650         0.0000         0.0000
     108              0         1.0750         0.0000         0.0000
     109              0         1.0850         0.0000         0.0000
     110              0         1.0950         0.0000         0.0000
     111              0         1.1050         0.0000         0.0000
     112              0         1.1150         0.0000         0.0000
     113              0         1.1250         0.0000         0.0000
     114              0         1.1350         0.0000         0.0000
     115              0         1.1450         0.0000         0.0000
     116              0         1.1550         0.0000         0.0000
     117              0         1.1650         0.0000         0.0000
     118              0         1.1750         0.0000         0.0000
     119              0         1.1850         0.0000         0.0000
     120              0         1.1950         0.0000         0.0000
     121              0         1.2050         0.0000         0.0000
     122              0         1.2150         0.0000         0.0000
     123              0         1.2250         0.0000         0.0000
     124              0         1.2350         0.0000         0.0000
     125              0         1.2450         0.0000         0.0000
     126              0         1.2550         0.0000         0.0000
     127              0         1.2650         0.0000         0.0000
     128              0         1.2750         0.0000         0.0000
     129              0         1.2850         0.0000         0.0000
     130              0         1.2950         0.0000         0.0000
     131              0         1.3050         0.0000         0.0000
     132              0         1.3150         0.0000         0.0000
     133              0         1.3250         0.0000         0.0000
     134              0         1.3350         0.0000         0.0000
     135              0         1.3450         0.0000         0.0000
     136              0         1.3550         0.0000         0.0000
     137              0         1.3650         0.0000         0.0000
     138              0         1.3750         0.0000         0.0000
     139              0         1.3850         0.0000         0.0000
     140              0         1.3950         0.0000         0.0000
     141              0         1.4050         0.0000         0.0000
     142              0         1.4150         0.0000         0.0000
     143              0         1.4250         0.0000         0.0000
     144              0         1.4350         0.0000         0.0000
     145              0         1.4450         0.0000         0.0000
     146              0         1.4550         0.0000         0.0000
     147              0         1.4650         0.0000         0.0000
     148              0         1.4750         0.0000         0.0000
     149              0         1.4850         0.0000         0.0000
     150              0         1.4950         0.0000         0.0000
     151              0         1.5050         0.0000         0.0000
     152              0         1.5150         0.0000         0.0000
     153              0         1.5250         0.0000         0.0000
     154              2         1.5350         0.0000         0.0000
     155              6         1.5450         0.0001         0.0001
     156              2         1.5550         0.0000         0.0001
     157              8         1.5650         0.0001         0.0001
     158             10         1.5750         0.0001         0.0001
     159             10         1.5850         0.0001         0.0002
     160             24         1.5950         0.0003         0.0003
     161             30         1.6050         0.0004         0.0004
     162             22         1.6150         0.0003         0.0004
     163             32         1.6250         0.0004         0.0005
     164             54         1.6350         0.0007         0.0007
     165             54         1.6450         0.0007         0.0008
     166             76         1.6550         0.0010         0.0011
     167            128         1.6650         0.0017         0.0016
     168            148         1.6750         0.0020         0.0020
     169            192         1.6850         0.0025         0.0026
     170            260         1.6950         0.0033         0.0033
     171            306         1.7050         0.0039         0.0037
     172            328         1.7150         0.0041         0.0046
     173            516         1.7250         0.0064         0.0060
     174            624         1.7350         0.0077         0.0079
     175            780         1.7450         0.0095         0.0094
     176            912         1.7550         0.0110         0.0107
     177           1026         1.7650         0.0122         0.0129
     178           1420         1.7750         0.0167         0.0162
     179           1714         1.7850         0.0199         0.0199
     180           1970         1.7950         0.0226         0.0227
     181           2260         1.8050         0.0257         0.0254
     182           2622         1.8150         0.0295         0.0304
     183           3366         1.8250         0.0374         0.0361
     184           3792         1.8350         0.0417         0.0427
     185           4528         1.8450         0.0492         0.0484
     186           5076         1.8550         0.0546         0.0548
     187           5826         1.8650         0.0620         0.0625
     188           6898         1.8750         0.0726         0.0717
     189           7872         1.8850         0.0820         0.0832
     190           9292         1.8950         0.0957         0.0943
     191          10300         1.9050         0.1050         0.1058
     192          11714         1.9150         0.1182         0.1187
     193          13518         1.9250         0.1350         0.1343
     194          15132         1.9350         0.1495         0.1492
     195          16728         1.9450         0.1636         0.1642
     196          18914         1.9550         0.1831         0.1843
     197          21652         1.9650         0.2075         0.2045
     198          23470         1.9750         0.2226         0.2257
     199          26488         1.9850         0.2487         0.2466
     200          29094         1.9950         0.2705         0.2724
     201          32340         2.0050         0.2977         0.2952
     202          34896         2.0150         0.3180         0.3201
     203          38558         2.0250         0.3479         0.3477
     204          42432         2.0350         0.3791         0.3772
     205          45808         2.0450         0.4053         0.4083
     206          50464         2.0550         0.4421         0.4388
     207          54190         2.0650         0.4702         0.4736
     208          59280         2.0750         0.5094         0.5065
     209          63498         2.0850         0.5404         0.5418
     210          68570         2.0950         0.5781         0.5795
     211          74442         2.1050         0.6216         0.6191
     212          79056         2.1150         0.6539         0.6540
     213          83878         2.1250         0.6873         0.6898
     214          90318         2.1350         0.7331         0.7317
     215          96246         2.1450         0.7740         0.7729
     216         101612         2.1550         0.8096         0.8113
     217         107968         2.1650         0.8523         0.8520
     218         114312         2.1750         0.8941         0.8926
     219         119980         2.1850         0.9299         0.9316
     220         126482         2.1950         0.9713         0.9702
     221         132750         2.2050         1.0102         1.0109
     222         139440         2.2150         1.0516         1.0513
     223         146194         2.2250         1.0926         1.0938
     224         153074         2.2350         1.1338         1.1303
     225         158302         2.2450         1.1621         1.1663
     226         165658         2.2550         1.2054         1.2031
     227         172268         2.2650         1.2424         1.2436
     228         178932         2.2750         1.2792         1.2781
     229         184642         2.2850         1.3085         1.3095
     230         190130         2.2950         1.3357         1.3338
     231         194512         2.3050         1.3546         1.3559
     232         199964         2.3150         1.3806         1.3821
     233         206500         2.3250         1.4135         1.4106
     234         211444         2.3350         1.4349         1.4371
     235         216902         2.3450         1.4594         1.4582
     236         221298         2.3550         1.4764         1.4773
     237         225256         2.3650         1.4901         1.4872
     238         227792         2.3750         1.4942         1.5002
     239         233088         2.3850         1.5162         1.5089
     240         234668         2.3950         1.5137         1.5203
     241         239028         2.4050         1.5291         1.5244
     242         240882         2.4150         1.5282         1.5304
     243         243396         2.4250         1.5314         1.5320
     244         245760         2.4350         1.5336         1.5303
     245         246026         2.4450         1.5228         1.5266
     246         248452         2.4550         1.5253         1.5243
     247         250116         2.4650         1.5231         1.5216
     248         249880         2.4750         1.5093         1.5095
     249         249378         2.4850         1.4942         1.4962
     250         249954         2.4950         1.4857         1.4841
     251         249048         2.5050         1.4685         1.4674
     252         247258         2.5150         1.4464         1.4497
     253         247352         2.5250         1.4355         1.4323
     254         245398         2.5350         1.4129         1.4143
     255         243824         2.5450         1.3929         1.3923
     256         242404         2.5550         1.3739         1.3765
     257         242142         2.5650         1.3618         1.3577
     258         238696         2.5750         1.3320         1.3338
     259         236214         2.5850         1.3080         1.3104
     260         235082         2.5950         1.2917         1.2864
     261         230462         2.6050         1.2566         1.2617
     262         228738         2.6150         1.2377         1.2340
     263         225408         2.6250         1.2104         1.2137
     264         223894         2.6350         1.1931         1.1897
     265         220380         2.6450         1.1655         1.1685
     266         218600         2.6550         1.1474         1.1463
     267         215718         2.6650         1.1238         1.1214
     268         211344         2.6750         1.0928         1.0975
     269         210568         2.6850         1.0807         1.0777
     270         207952         2.6950         1.0594         1.0594
     271         204832         2.7050         1.0358         1.0364
     272         202516         2.7150         1.0165         1.0175
     273         200992         2.7250         1.0015         0.9995
     274         197996         2.7350         0.9794         0.9810
     275         196054         2.7450         0.9627         0.9622
     276         193902         2.7550         0.9453         0.9443
     277         191420         2.7650         0.9264         0.9287
     278         190690         2.7750         0.9162         0.9136
     279         188202         2.7850         0.8978         0.8997
     280         186962         2.7950         0.8855         0.8846
     281         185242         2.8050         0.8711         0.8709
     282         183634         2.8150         0.8574         0.8587
     283         183318         2.8250         0.8499         0.8488
     284         182294         2.8350         0.8392         0.8396
     285         181456         2.8450         0.8295         0.8294
     286         180668         2.8550         0.8201         0.8201
     287         180010         2.8650         0.8114         0.8114
     288         179684         2.8750         0.8043         0.8050
     289         179912         2.8850         0.7998         0.7984
     290         179300         2.8950         0.7916         0.7931
     291         180246         2.9050         0.7903         0.7908
     292         181134         2.9150         0.7887         0.7853
     293         178898         2.9250         0.7737         0.7767
     294         179660         2.9350         0.7717         0.7723
     295         181576         2.9450         0.7746         0.7719
     296         180982         2.9550         0.7669         0.7684
     297         181646         2.9650         0.7645         0.7652
     298         183304         2.9750         0.7663         0.7651
     299         183796         2.9850         0.7632         0.7638
     300         184426         2.9950         0.7607         0.7604
     301         184876         3.0050         0.7575         0.7574
     302         185742         3.0150         0.7560         0.7573
     303         187998         3.0250         0.7602         0.7586
     304         188834         3.0350         0.7585         0.7589
     305         189816         3.0450         0.7575         0.7574
     306         191532         3.0550         0.7593         0.7613
     307         194802         3.0650         0.7673         0.7631
     308         194528         3.0750         0.7612         0.7657
     309         197966         3.0850         0.7696         0.7663
     310         198900         3.0950         0.7683         0.7699
     311         201042         3.1050         0.7716         0.7714
     312         203244         3.1150         0.7750         0.7746
     313         204838         3.1250         0.7761         0.7760
     314         206482         3.1350         0.7773         0.7778
     315         209016         3.1450         0.7819         0.7818
     316         211830         3.1550         0.7874         0.7878
     317         214700         3.1650         0.7930         0.7915
     318         216138         3.1750         0.7933         0.7953
     319         219642         3.1850         0.8011         0.8003
     320         222358         3.1950         0.8060         0.8050
     321         224094         3.2050         0.8072         0.8095
     322         227930         3.2150         0.8159         0.8129
     323         229614         3.2250         0.8169         0.8211
     324         234778         3.2350         0.8301         0.8250
     325         235018         3.2450         0.8258         0.8297
     326         238794         3.2550         0.8339         0.8315
     327         241546         3.2650         0.8384         0.8416
     328         246660         3.2750         0.8509         0.8458
     329         246606         3.2850         0.8456         0.8506
     330         251162         3.2950         0.8560         0.8521
     331         252932         3.3050         0.8568         0.8599
     332         257654         3.3150         0.8675         0.8648
     333         260282         3.3250         0.8711         0.8736
     334         265180         3.3350         0.8822         0.8800
     335         267828         3.3450         0.8857         0.8867
     336         271172         3.3550         0.8914         0.8914
     337         274654         3.3650         0.8975         0.8969
     338         277618         3.3750         0.9018         0.9023
     339         281652         3.3850         0.9095         0.9102
     340         286564         3.3950         0.9199         0.9178
     341         289562         3.4050         0.9241         0.9269
     342         295604         3.4150         0.9379         0.9355
     343         299386         3.4250         0.9443         0.9463
     344         304378         3.4350         0.9545         0.9521
     345         306640         3.4450         0.9560         0.9578
     346         311042         3.4550         0.9641         0.9640
     347         315570         3.4650         0.9725         0.9715
     348         318642         3.4750         0.9763         0.9768
     349         322706         3.4850         0.9831         0.9843
     350         328314         3.4950         0.9945         0.9925
     351         331652         3.5050         0.9989         1.0003
     352         336586         3.5150         1.0080         1.0079
     353         341412         3.5250         1.0166         1.0154
     354         344518         3.5350         1.0201         1.0210
     355         349162         3.5450         1.0280         1.0288
     356         355144         3.5550         1.0398         1.0378
     357         358968         3.5650         1.0451         1.0467
     358         365092         3.5750         1.0570         1.0580
     359         371370         3.5850         1.0691         1.0644
     360         371200         3.5950         1.0627         1.0675
     361         377472         3.6050         1.0747         1.0737
     362         383742         3.6150         1.0865         1.0855
     363         387548         3.6250         1.0912         1.0905
     364         390604         3.6350         1.0938         1.0969
     365         397592         3.6450         1.1073         1.1033
     366         400112         3.6550         1.1082         1.1121
     367         406502         3.6650         1.1198         1.1160
     368         408564         3.6750         1.1193         1.1227
     369         414048         3.6850         1.1282         1.1256
     370         416368         3.6950         1.1284         1.1295
     371         420164         3.7050         1.1325         1.1332
     372         425340         3.7150         1.1403         1.1393
     373         428862         3.7250         1.1436         1.1438
     374         432078         3.7350         1.1460         1.1461
     375         435664         3.7450         1.1494         1.1495
     376         439812         3.7550         1.1541         1.1541
     377         443928         3.7650         1.1588         1.1586
     378         447598         3.7750         1.1622         1.1627
     379         451214         3.7850         1.1654         1.1643
     380         452532         3.7950         1.1626         1.1630
     381         454266         3.8050         1.1609         1.1617
     382         457410         3.8150         1.1629         1.1616
     383         459494         3.8250         1.1621         1.1636
     384         463736         3.8350         1.1667         1.1654
     385         466242         3.8450         1.1669         1.1679
     386         468914         3.8550         1.1675         1.1656
     387         469008         3.8650         1.1617         1.1647
     388         472590         3.8750         1.1645         1.1608
     389         471550         3.8850         1.1560         1.1598
     390         475464         3.8950         1.1596         1.1566
     391         475716         3.9050         1.1543         1.1565
     392         477948         3.9150         1.1538         1.1518
     393         477200         3.9250         1.1461         1.1470
     394         477954         3.9350         1.1421         1.1430
     395         480604         3.9450         1.1426         1.1413
     396         481344         3.9550         1.1386         1.1397
     397         482954         3.9650         1.1367         1.1357
     398         482880         3.9750         1.1308         1.1317
     399         483218         3.9850         1.1259         1.1238
     400         481438         3.9950         1.1161         1.1201
     401         485582         4.0050         1.1201         1.1158
     402         483480         4.0150         1.1097         1.1126
     403         484842         4.0250         1.1073         1.1057
     404         484978         4.0350         1.1022         1.1037
     405         487248         4.0450         1.1018         1.1005
     406         486934         4.0550         1.0957         1.0957
     407         486158         4.0650         1.0886         1.0894
     408         487112         4.0750         1.0854         1.0849
     409         487648         4.0850         1.0813         1.0810
     410         487866         4.0950         1.0765         1.0772
     411         489092         4.1050         1.0739         1.0731
     412         489028         4.1150         1.0686         1.0687
     413         489474         4.1250         1.0644         1.0653
     414         491588         4.1350         1.0638         1.0625
     415         491656         4.1450         1.0588         1.0598
     416         493090         4.1550         1.0568         1.0565
     417         493948         4.1650         1.0536         1.0530
     418         494034         4.1750         1.0487         1.0503
     419         496380         4.1850         1.0487         1.0459
     420         495198         4.1950         1.0412         1.0450
     421         500126         4.2050         1.0465         1.0431
     422         499482         4.2150         1.0402         1.0422
     423         500830         4.2250         1.0381         1.0365
     424         500568         4.2350         1.0327         1.0347
     425         503934         4.2450         1.0347         1.0329
     426         504902         4.2550         1.0318         1.0335
     427         507968         4.2650         1.0333         1.0311
     428         508022         4.2750         1.0285         1.0309
     429         512044         4.2850         1.0318         1.0303
     430         513298         4.2950         1.0296         1.0294
     431         513662         4.3050         1.0255         1.0265
     432         516226         4.3150         1.0259         1.0255
     433         518318         4.3250         1.0253         1.0248
     434         519604         4.3350         1.0231         1.0238
     435         522258         4.3450         1.0236         1.0227
     436         523978         4.3550         1.0222         1.0230
     437         527398         4.3650         1.0242         1.0239
     438         530578         4.3750         1.0257         1.0255
     439         533000         4.3850         1.0256         1.0257
     440         534848         4.3950         1.0245         1.0240
     441         535892         4.4050         1.0219         1.0229
     442         538798         4.4150         1.0228         1.0215
     443         539806         4.4250         1.0200         1.0205
     444         543000         4.4350         1.0215         1.0233
     445         549890         4.4450         1.0298         1.0274
     446         550720         4.4550         1.0267         1.0265
     447         550548         4.4650         1.0218         1.0244
     448         555888         4.4750         1.0271         1.0248
     449         556982         4.4850         1.0245         1.0250
     450         558686         4.4950         1.0231         1.0242
     451         563044         4.5050         1.0265         1.0250
     452         564780         4.5150         1.0251         1.0263
     453         568526         4.5250         1.0274         1.0265
     454         571022         4.5350         1.0273         1.0281
     455         574264         4.5450         1.0286         1.0273
     456         575320         4.5550         1.0260         1.0280
     457         580080         4.5650         1.0299         1.0280
     458         581134         4.5750         1.0273         1.0281
     459         583762         4.5850         1.0275         1.0281
     460         587840         4.5950         1.0301         1.0290
     461         589176         4.6050         1.0280         1.0287
     462         591360         4.6150         1.0273         1.0269
     463         593478         4.6250         1.0266         1.0278
     464         597734         4.6350         1.0295         1.0273
     465         597968         4.6450         1.0255         1.0284
     466         602452         4.6550         1.0287         1.0246
     467         599562         4.6650         1.0194         1.0234
     468         605448         4.6750         1.0250         1.0230
     469         608568         4.6850         1.0259         1.0264
     470         611188         4.6950         1.0259         1.0252
     471         611760         4.7050         1.0225         1.0231
     472         613410         4.7150         1.0209         1.0209
     473         615414         4.7250         1.0199         1.0196
     474         616916         4.7350         1.0181         1.0181
     475         619378         4.7450         1.0179         1.0192
     476         624060         4.7550         1.0213         1.0188
     477         623014         4.7650         1.0153         1.0175
     478         626120         4.7750         1.0161         1.0148
     479         627194         4.7850         1.0136         1.0139
     480         628792         4.7950         1.0119         1.0118
     481         631006         4.8050         1.0112         1.0117
     482         634828         4.8150         1.0131         1.0131
     483         637928         4.8250         1.0139         1.0127
     484         638024         4.8350         1.0098         1.0117
     485         641430         4.8450         1.0110         1.0091
     486         640368         4.8550         1.0052         1.0060
     487         641276         4.8650         1.0025         1.0033
     488         644878         4.8750         1.0040         1.0031
     489         646032         4.8850         1.0017         1.0014
     490         646112         4.8950         0.9977         0.9987
     491         648912         4.9050         0.9980         0.9975
     492         650696         4.9150         0.9966         0.9963
     493         651016         4.9250         0.9931         0.9930
     494         651662         4.9350         0.9900         0.9912
     495         655370         4.9450         0.9917         0.9903
     496         655980         4.9550         0.9886         0.9896
     497         658124         4.9650         0.9878         0.9869
     498         658808         4.9750         0.9849         0.9862
     499         662580         4.9850         0.9865         0.9857
     500         663970         4.9950         0.9847         0.9842
     501         663874         5.0050         0.9806         0.9814
     502         666594         5.0150         0.9807         0.9809
     503         669758         5.0250         0.9814         0.9802
     504         669518         5.0350         0.9772         0.9783
     505         671444         5.0450         0.9761         0.9753
     506         672374         5.0550         0.9736         0.9747
     507         675400         5.0650         0.9741         0.9726
     508         674830         5.0750         0.9695         0.9708
     509         677638         5.0850         0.9697         0.9691
     510         679546         5.0950         0.9686         0.9685
     511         681182         5.1050         0.9671         0.9679
     512         684128         5.1150         0.9675         0.9661
     513         683650         5.1250         0.9631         0.9643
     514         686656         5.1350         0.9635         0.9638
     515         689998         5.1450         0.9645         0.9622
     516         688064         5.1550         0.9580         0.9610
     517         693778         5.1650         0.9623         0.9602
     518         694882         5.1750         0.9601         0.9606
     519         696266         5.1850         0.9583         0.9584
     520         698258         5.1950         0.9573         0.9572
     521         700204         5.2050         0.9563         0.9563
     522         702400         5.2150         0.9556         0.9556
     523         704796         5.2250         0.9552         0.9554
     524         707288         5.2350         0.9549         0.9542
     525         708242         5.2450         0.9526         0.9542
     526         712518         5.2550         0.9547         0.9519
     527         710460         5.2650         0.9483         0.9514
     528         716380         5.2750         0.9526         0.9504
     529         717628         5.2850         0.9506         0.9517
     530         720960         5.2950         0.9515         0.9513
     531         724182         5.3050         0.9521         0.9517
     532         726114         5.3150         0.9511         0.9513
     533         728776         5.3250         0.9510         0.9512
     534         731988         5.3350         0.9516         0.9511
     535         733860         5.3450         0.9504         0.9508
     536         736734         5.3550         0.9506         0.9504
     537         739792         5.3650         0.9510         0.9517
     538         743852         5.3750         0.9527         0.9511
     539         743492         5.3850         0.9487         0.9505
     540         747980         5.3950         0.9509         0.9495
     541         749516         5.4050         0.9493         0.9497
     542         752600         5.4150         0.9497         0.9506
     543         758326         5.4250         0.9534         0.9520
     544         759566         5.4350         0.9514         0.9518
     545         761942         5.4450         0.9509         0.9518
     546         767524         5.4550         0.9544         0.9531
     547         769518         5.4650         0.9533         0.9543
     548         773332         5.4750         0.9546         0.9538
     549         775344         5.4850         0.9536         0.9541
     550         778982         5.4950         0.9546         0.9543
     551         782810         5.5050         0.9558         0.9560
     552         787482         5.5150         0.9580         0.9579
     553         790938         5.5250         0.9587         0.9580
     554         791824         5.5350         0.9563         0.9575
     555         796066         5.5450         0.9580         0.9569
     556         798582         5.5550         0.9575         0.9589
     557         804546         5.5650         0.9612         0.9596
     558         806096         5.5750         0.9596         0.9611
     559         811218         5.5850         0.9623         0.9610
     560         813552         5.5950         0.9616         0.9628
     561         819354         5.6050         0.9650         0.9644
     562         822686         5.6150         0.9655         0.9645
     563         823198         5.6250         0.9626         0.9644
     564         830010         5.6350         0.9672         0.9662
     565         834292         5.6450         0.9687         0.9686
     566         836564         5.6550         0.9679         0.9677
     567         838638         5.6650         0.9669         0.9681
     568         844934         5.6750         0.9707         0.9692
     569         847712         5.6850         0.9705         0.9720
     570         854298         5.6950         0.9746         0.9730
     571         856482         5.7050         0.9737         0.9750
     572         862232         5.7150         0.9768         0.9763
     573         866464         5.7250         0.9782         0.9778
     574         868908         5.7350         0.9775         0.9778
     575         873180         5.7450         0.9789         0.9797
     576         879892         5.7550         0.9830         0.9815
     577         881430         5.7650         0.9813         0.9822
     578         885438         5.7750         0.9823         0.9823
     579         890046         5.7850         0.9840         0.9839
     580         893592         5.7950         0.9846         0.9837
     581         895388         5.8050         0.9831         0.9851
     582         903382         5.8150         0.9885         0.9861
     583         904408         5.8250         0.9862         0.9881
     584         911098         5.8350         0.9901         0.9898
     585         916218         5.8450         0.9923         0.9906
     586         915816         5.8550         0.9885         0.9912
     587         924382         5.8650         0.9943         0.9922
     588         927134         5.8750         0.9939         0.9950
     589         931996         5.8850         0.9957         0.9950
     590         934844         5.8950         0.9954         0.9959
     591         939574         5.9050         0.9970         0.9971
     592         944430         5.9150         0.9988         0.9982
     593         946896         5.9250         0.9980         0.9980
     594         950386         5.9350         0.9983         0.9996
     595         958054         5.9450         1.0030         1.0011
     596         958874         5.9550         1.0005         1.0015
     597         962964         5.9650         1.0014         1.0015
     598         968540         5.9750         1.0038         1.0031
     599         972346         5.9850         1.0044         1.0057
     600         978942         5.9950         1.0078         1.0055
     601         977636         6.0050         1.0031         1.0055
     602         984656         6.0150         1.0070         1.0060
     603         989068         6.0250         1.0081         1.0081
     604         991610         6.0350         1.0074         1.0072
     605         993202         6.0450         1.0057         1.0060
     606         997284         6.0550         1.0065         1.0070
     607        1003410         6.0650         1.0093         1.0082
     608        1005232         6.0750         1.0078         1.0085
     609        1009206         6.0850         1.0085         1.0085
     610        1014440         6.0950         1.0104         1.0104
     611        1019352         6.1050         1.0120         1.0114
     612        1022036         6.1150         1.0113         1.0121
     613        1027128         6.1250         1.0130         1.0123
     614        1029676         6.1350         1.0122         1.0127
     615        1033322         6.1450         1.0125         1.0122
     616        1036548         6.1550         1.0124         1.0130
     617        1042098         6.1650         1.0145         1.0141
     618        1044816         6.1750         1.0139         1.0129
     619        1044532         6.1850         1.0103         1.0124
     620        1053028         6.1950         1.0152         1.0138
     621        1056294         6.2050         1.0151         1.0150
     622        1057094         6.2150         1.0126         1.0130
     623        1059800         6.2250         1.0119         1.0117
     624        1063620         6.2350         1.0123         1.0131
     625        1070268         6.2450         1.0154         1.0142
     626        1072498         6.2550         1.0143         1.0152
     627        1077486         6.2650         1.0157         1.0155
     628        1080920         6.2750         1.0157         1.0149
     629        1081596         6.2850         1.0131         1.0151
     630        1088966         6.2950         1.0168         1.0146
     631        1087710         6.3050         1.0124         1.0136
     632        1090290         6.3150         1.0116         1.0115
     633        1093946         6.3250         1.0118         1.0117
     634        1097612         6.3350         1.0120         1.0117
     635        1100620         6.3450         1.0115         1.0122
     636        1106026         6.3550         1.0133         1.0128
     637        1108214         6.3650         1.0121         1.0115
     638        1108116         6.3750         1.0089         1.0104
     639        1115088         6.3850         1.0120         1.0111
     640        1118892         6.3950         1.0123         1.0122
     641        1120872         6.4050         1.0109         1.0108
     642        1123444         6.4150         1.0101         1.0112
     643        1130642         6.4250         1.0134         1.0121
     644        1131892         6.4350         1.0114         1.0115
     645        1133112         6.4450         1.0093         1.0101
     646        1138632         6.4550         1.0111         1.0109
     647        1142200         6.4650         1.0111         1.0100
     648        1140464         6.4750         1.0065         1.0077
     649        1144588         6.4850         1.0070         1.0069
     650        1150314         6.4950         1.0089         1.0090
     651        1155356         6.5050         1.0103         1.0097
     652        1157118         6.5150         1.0087         1.0092
     653        1160464         6.5250         1.0085         1.0082
     654        1163288         6.5350         1.0079         1.0083
     655        1168088         6.5450         1.0089         1.0086
     656        1171294         6.5550         1.0086         1.0088
     657        1174448         6.5650         1.0083         1.0082
     658        1177332         6.5750         1.0077         1.0079
     659        1181174         6.5850         1.0079         1.0076
     660        1184170         6.5950         1.0074         1.0079
     661        1188766         6.6050         1.0082         1.0074
     662        1190328         6.6150         1.0065         1.0074
     663        1195276         6.6250         1.0076         1.0069
     664        1196964         6.6350         1.0060         1.0061
     665        1199392         6.6450         1.0050         1.0059
     666        1205842         6.6550         1.0074         1.0061
     667        1206802         6.6650         1.0052         1.0061
     668        1211452         6.6750         1.0060         1.0057
     669        1215776         6.6850         1.0066         1.0071
     670        1220568         6.6950         1.0076         1.0061
     671        1219624         6.7050         1.0038         1.0057
     672        1226864         6.7150         1.0067         1.0053
     673        1229022         6.7250         1.0055         1.0063
     674        1232996         6.7350         1.0058         1.0049
     675        1233648         6.7450         1.0033         1.0040
     676        1238180         6.7550         1.0040         1.0042
     677        1243344         6.7650         1.0052         1.0038
     678        1243030         6.7750         1.0020         1.0038
     679        1251060         6.7850         1.0055         1.0047
     680        1256008         6.7950         1.0065         1.0064
     681        1257582         6.8050         1.0048         1.0045
     682        1257756         6.8150         1.0020         1.0029
     683        1263458         6.8250         1.0036         1.0034
     684        1268836         6.8350         1.0049         1.0044
     685        1270708         6.8450         1.0035         1.0040
     686        1274368         6.8550         1.0034         1.0031
     687        1277788         6.8650         1.0032         1.0042
     688        1284608         6.8750         1.0056         1.0040
     689        1283798         6.8850         1.0021         1.0032
     690        1288182         6.8950         1.0026         1.0027
     691        1294132         6.9050         1.0043         1.0035
     692        1296796         6.9150         1.0034         1.0045
     693        1302800         6.9250         1.0052         1.0041
     694        1303578         6.9350         1.0029         1.0036
     695        1307364         6.9450         1.0029         1.0027
     696        1311228         6.9550         1.0030         1.0033
     697        1315844         6.9650         1.0036         1.0028
     698        1317316         6.9750         1.0019         1.0032
     699        1324912         6.9850         1.0048         1.0037
     700        1328032         6.9950         1.0042         1.0048
     701        1331842         7.0050         1.0043         1.0036
     702        1333668         7.0150         1.0028         1.0040
     703        1340396         7.0250         1.0050         1.0032
     704        1339470         7.0350         1.0014         1.0030
     705        1345242         7.0450         1.0029         1.0018
     706        1346958         7.0550         1.0013         1.0019
     707        1351080         7.0650         1.0015         1.0014
     708        1355506         7.0750         1.0020         1.0019
     709        1359614         7.0850         1.0022         1.0025
     710        1364384         7.0950         1.0029         1.0021
     711        1365084         7.1050         1.0006         1.0011
     712        1369164         7.1150         1.0007         1.0008
     713        1375082         7.1250         1.0022         1.0020
     714        1379636         7.1350         1.0027         1.0030
     715        1383548         7.1450         1.0028         1.0020
     716        1383360         7.1550         0.9998         1.0005
     717        1387386         7.1650         0.9999         0.9999
     718        1392816         7.1750         1.0011         1.0009
     719        1397250         7.1850         1.0014         1.0014
     720        1401498         7.1950         1.0017         1.0020
     721        1406634         7.2050         1.0026         1.0020
     722        1408652         7.2150         1.0012         1.0020
     723        1412690         7.2250         1.0013         1.0002
     724        1412092         7.2350         0.9981         0.9993
     725        1418436         7.2450         0.9999         0.9994
     726        1423638         7.2550         1.0008         1.0008
     727        1427928         7.2650         1.0010         1.0007
     728        1430684         7.2750         1.0002         1.0010
     729        1437406         7.2850         1.0021         1.0016
     730        1441004         7.2950         1.0019         1.0017
     731        1442758         7.3050         1.0004         1.0009
     732        1447714         7.3150         1.0011         1.0011
     733        1452132         7.3250         1.0014         1.0005
     734        1451672         7.3350         0.9983         0.9995
     735        1456966         7.3450         0.9992         0.9981
     736        1459286         7.3550         0.9981         0.9997
     737        1469256         7.3650         1.0022         1.0005
     738        1469896         7.3750         0.9999         1.0010
     739        1474044         7.3850         1.0000         0.9996
     740        1476982         7.3950         0.9993         0.9997
     741        1482072         7.4050         1.0001         0.9998
     742        1485628         7.4150         0.9998         0.9996
     743        1488890         7.4250         0.9993         1.0001
     744        1496124         7.4350         1.0014         1.0004
     745        1497168         7.4450         0.9994         0.9998
     746        1500396         7.4550         0.9989         0.9996
     747        1507526         7.4650         1.0010         0.9995
     748        1507694         7.4750         0.9984         1.0000
     749        1515546         7.4850         1.0009         0.9994
     750        1516946         7.4950         0.9992         1.0004
     751        1523708         7.5050         1.0009         1.0000
     752        1526134         7.5150         0.9999         1.0002
     753        1530352         7.5250         1.0000         1.0004
     754        1536442         7.5350         1.0013         1.0002
     755        1536658         7.5450         0.9988         0.9997
     756        1542802         7.5550         1.0001         1.0002
     757        1550566         7.5650         1.0025         1.0019
     758        1553336         7.5750         1.0016         1.0016
     759        1554548         7.5850         0.9998         0.9998
     760        1557874         7.5950         0.9993         1.0001
     761        1566232         7.6050         1.0020         1.0007
     762        1567984         7.6150         1.0005         1.0017
     763        1574562         7.6250         1.0020         1.0009
     764        1575902         7.6350         1.0003         1.0015
     765        1582366         7.6450         1.0018         1.0005
     766        1582014         7.6550         0.9989         0.9996
     767        1586522         7.6650         0.9991         0.9995
     768        1594342         7.6750         1.0015         1.0006
     769        1596626         7.6850         1.0003         1.0006
     770        1600220         7.6950         0.9999         1.0001
     771        1606504         7.7050         1.0013         1.0015
     772        1612854         7.7150         1.0026         1.0015
     773        1611204         7.7250         0.9990         0.9999
     774        1615256         7.7350         0.9989         0.9993
     775        1622606         7.7450         1.0009         0.9997
     776        1623904         7.7550         0.9991         1.0002
     777        1631386         7.7650         1.0011         1.0003
     778        1635424         7.7750         1.0010         1.0016
     779        1642254         7.7850         1.0026         1.0023
     780        1646202         7.7950         1.0024         1.0021
     781        1647984         7.8050         1.0010         1.0021
     782        1655810         7.8150         1.0031         1.0015
     783        1655012         7.8250         1.0001         1.0017
     784        1662916         7.8350         1.0023         1.0015
     785        1666508         7.8450         1.0019         1.0015
     786        1667946         7.8550         1.0002         1.0014
     787        1676824         7.8650         1.0030         1.0020
     788        1680074         7.8750         1.0024         1.0030
     789        1684714         7.8850         1.0026         1.0019
     790        1686556         7.8950         1.0012         1.0021
     791        1694588         7.9050         1.0034         1.0027
     792        1698774         7.9150         1.0033         1.0037
     793        1703076         7.9250         1.0033         1.0031
     794        1705010         7.9350         1.0019         1.0018
     795        1707116         7.9450         1.0007         1.0012
     796        1714662         7.9550         1.0026         1.0023
     797        1721822         7.9650         1.0042         1.0042
     798        1726928         7.9750         1.0047         1.0042
     799        1728182         7.9850         1.0029         1.0032
     800        1732500         7.9950         1.0029         1.0034
     801        1740848         8.0050         1.0052         1.0042
     802        1743174         8.0150         1.0040         1.0049
     803        1748794         8.0250         1.0047         1.0039
     804        1749572         8.0350         1.0027         1.0034
     805        1754190         8.0450         1.0028         1.0024
     806        1757402         8.0550         1.0022         1.0027
     807        1763048         8.0650         1.0029         1.0023
     808        1765448         8.0750         1.0018         1.0022
     809        1770786         8.0850         1.0023         1.0024
     810        1777720         8.0950         1.0038         1.0039
     811        1783756         8.1050         1.0047         1.0040
     812        1783778         8.1150         1.0022         1.0028
     813        1788022         8.1250         1.0022         1.0026
     814        1796048         8.1350         1.0042         1.0032
     815        1798390         8.1450         1.0030         1.0043
     816        1807038         8.1550         1.0054         1.0038
     817        1806298         8.1650         1.0025         1.0042
     818        1814148         8.1750         1.0044         1.0028
     819        1813710         8.1850         1.0017         1.0032
     820        1821514         8.1950         1.0036         1.0024
     821        1823054         8.2050         1.0020         1.0027
     822        1828376         8.2150         1.0024         1.0020
     823        1832180         8.2250         1.0021         1.0026
     824        1839130         8.2350         1.0034         1.0032
     825        1843062         8.2450         1.0032         1.0025
     826        1842962         8.2550         1.0007         1.0018
     827        1851084         8.2650         1.0026         1.0021
     828        1856384         8.2750         1.0031         1.0029
     829        1859044         8.2850         1.0021         1.0024
     830        1864000         8.2950         1.0024         1.0024
     831        1870414         8.3050         1.0034         1.0035
     832        1876912         8.3150         1.0044         1.0040
     833        1878684         8.3250         1.0030         1.0029
     834        1879620         8.3350         1.0011         1.0013
     835        1884552         8.3450         1.0013         1.0019
     836        1893616         8.3550         1.0037         1.0027
     837        1894540         8.3650         1.0018         1.0022
     838        1898044         8.3750         1.0013         1.0017
     839        1905180         8.3850         1.0026         1.0018
     840        1907388         8.3950         1.0014         1.0020
     841        1913296         8.4050         1.0021         1.0019
     842        1918244         8.4150         1.0023         1.0022
     843        1921996         8.4250         1.0019         1.0019
     844        1925836         8.4350         1.0015         1.0018
     845        1931570         8.4450         1.0021         1.0017
     846        1934976         8.4550         1.0015         1.0021
     847        1940948         8.4650         1.0022         1.0011
     848        1940432         8.4750         0.9996         1.0010
     849        1949288         8.4850         1.0018         1.0009
     850        1952194         8.4950         1.0009         1.0011
     851        1954868         8.5050         0.9999         1.0002
     852        1959746         8.5150         1.0001         1.0000
     853        1963636         8.5250         0.9997         0.9995
     854        1965818         8.5350         0.9985         0.9985
     855        1970812         8.5450         0.9987         0.9997
     856        1982880         8.5550         1.0025         1.0007
     857        1982304         8.5650         0.9998         1.0012
     858        1989550         8.5750         1.0011         1.0003
     859        1992208         8.5850         1.0001         1.0006
     860        1996998         8.5950         1.0002         0.9999
     861        1999620         8.6050         0.9992         0.9995
     862        2003942         8.6150         0.9990         0.9988
     863        2007828         8.6250         0.9987         0.9992
     864        2014382         8.6350         0.9996         0.9985
     865        2013150         8.6450         0.9967         0.9976
     866        2018862         8.6550         0.9972         0.9969
     867        2024634         8.6650         0.9977         0.9978
     868        2030254         8.6750         0.9982         0.9980
     869        2033364         8.6850         0.9974         0.9974
     870        2036874         8.6950         0.9969         0.9972
     871        2044308         8.7050         0.9982         0.9980
     872        2049978         8.7150         0.9987         0.9986
     873        2054038         8.7250         0.9984         0.9985
     874        2058096         8.7350         0.9980         0.9977
     875        2060312         8.7450         0.9968         0.9974
     876        2067264         8.7550         0.9979         0.9976
     877        2071846         8.7650         0.9978         0.9975
     878        2074358         8.7750         0.9968         0.9978
     879        2083616         8.7850         0.9989         0.9979
     880        2084726         8.7950         0.9972         0.9977
     881        2088760         8.8050         0.9969         0.9969
     882        2093624         8.8150         0.9969         0.9968
     883        2097502         8.8250         0.9965         0.9965
     884        2101906         8.8350         0.9963         0.9968
     885        2109554         8.8450         0.9977         0.9969
     886        2110704         8.8550         0.9960         0.9964
     887        2115842         8.8650         0.9962         0.9966
     888        2124722         8.8750         0.9981         0.9972
     889        2125790         8.8850         0.9964         0.9969
     890        2129418         8.8950         0.9958         0.9958
     891        2133630         8.9050         0.9955         0.9953
     892        2136414         8.9150         0.9946         0.9948
     893        2142148         8.9250         0.9950         0.9953
     894        2149948         8.9350         0.9964         0.9955
     895        2151876         8.9450         0.9951         0.9964
     896        2162890         8.9550         0.9980         0.9967
     897        2164722         8.9650         0.9966         0.9976
     898        2171656         8.9750         0.9975         0.9968
     899        2172926         8.9850         0.9959         0.9962
     900        2176866         8.9950         0.9955         0.9957
     901        2183722         9.0050         0.9964         0.9960
     902        2187132         9.0150         0.9958         0.9962
     903        2192022         9.0250         0.9958         0.9949
     904        2192434         9.0350         0.9938         0.9953
     905        2203754         9.0450         0.9967         0.9949
     906        2202462         9.0550         0.9939         0.9952
     907        2209826         9.0650         0.9950         0.9943
     908        2213652         9.0750         0.9945         0.9951
     909        2221280         9.0850         0.9958         0.9953
     910        2224618         9.0950         0.9951         0.9951
     911        2228948         9.1050         0.9948         0.9954
     912        2237832         9.1150         0.9966         0.9955
     913        2239080         9.1250         0.9950         0.9961
     914        2248152         9.1350         0.9968         0.9961
     915        2251870         9.1450         0.9963         0.9966
     916        2256590         9.1550         0.9962         0.9958
     917        2259888         9.1650         0.9955         0.9961
     918        2268506         9.1750         0.9971         0.9963
     919        2271322         9.1850         0.9962         0.9969
     920        2278920         9.1950         0.9973         0.9966
     921        2280974         9.2050         0.9960         0.9965
     922        2286286         9.2150         0.9962         0.9961
     923        2290840         9.2250         0.9960         0.9955
     924        2292490         9.2350         0.9946         0.9957
     925        2302766         9.2450         0.9969         0.9953
     926        2302026         9.2550         0.9944         0.9961
     927        2313606         9.2650         0.9973         0.9961
     928        2315334         9.2750         0.9959         0.9960
     929        2317298         9.2850         0.9945         0.9953
     930        2326386         9.2950         0.9963         0.9953
     931        2328090         9.3050         0.9949         0.9956
     932        2334644         9.3150         0.9956         0.9950
     933        2338800         9.3250         0.9952         0.9959
     934        2348140         9.3350         0.9970         0.9962
     935        2351120         9.3450         0.9961         0.9969
     936        2358660         9.3550         0.9972         0.9968
     937        2361890         9.3650         0.9964         0.9961
     938        2362932         9.3750         0.9948         0.9958
     939        2373496         9.3850         0.9971         0.9959
     940        2375378         9.3950         0.9957         0.9965
     941        2383206         9.4050         0.9969         0.9967
     942        2389554         9.4150         0.9974         0.9970
     943        2391602         9.4250         0.9962         0.9967
     944        2398742         9.4350         0.9970         0.9969
     945        2405138         9.4450         0.9976         0.9972
     946        2407738         9.4550         0.9965         0.9971
     947        2414866         9.4650         0.9974         0.9971
     948        2419532         9.4750         0.9972         0.9971
     949        2422510         9.4850         0.9963         0.9962
     950        2426940         9.4950         0.9960         0.9968
     951        2438214         9.5050         0.9986         0.9974
     952        2438794         9.5150         0.9967         0.9975
     953        2444324         9.5250         0.9969         0.9965
     954        2448156         9.5350         0.9963         0.9965
     955        2455048         9.5450         0.9970         0.9972
     956        2464054         9.5550         0.9986         0.9983
     957        2468946         9.5650         0.9985         0.9986
     958        2473664         9.5750         0.9983         0.9983
     959        2478336         9.5850         0.9981         0.9982
     960        2484048         9.5950         0.9983         0.9984
     961        2490082         9.6050         0.9987         0.9984
     962        2495000         9.6150         0.9986         0.9992
     963        2504458         9.6250         1.0003         0.9993
     964        2504882         9.6350         0.9984         0.9992
     965        2512330         9.6450         0.9993         0.9991
     966        2519890         9.6550         1.0002         1.0000
     967        2524036         9.6650         0.9998         0.9998
     968        2527340         9.6750         0.9990         0.9990
     969        2531590         9.6850         0.9986         0.9989
     970        2539144         9.6950         0.9995         0.9993
     971        2544634         9.7050         0.9996         0.9996
     972        2549950         9.7150         0.9997         1.0001
     973        2559208         9.7250         1.0012         1.0008
     974        2563514         9.7350         1.0009         1.0010
     975        2567288         9.7450         1.0003         1.0001
     976        2571538         9.7550         0.9999         1.0005
     977        2581544         9.7650         1.0017         1.0010
     978        2585224         9.7750         1.0011         1.0016
     979        2591316         9.7850         1.0014         1.0011
     980        2594472         9.7950         1.0006         1.0004
     981        2597842         9.8050         0.9998         1.0009
     982        2609104         9.8150         1.0021         1.0004
     983        2604818         9.8250         0.9984         0.9997
     984        2612274         9.8350         0.9993         0.9988
     985        2619708         9.8450         1.0001         1.0005
     986        2629822         9.8550         1.0019         1.0012
     987        2633546         9.8650         1.0013         1.0020
     988        2641946         9.8750         1.0024         1.0019
     989        2644776         9.8850         1.0015         1.0015
     990        2647034         9.8950         1.0003         1.0006
     991        2653008         9.9050         1.0005         1.0001
     992        2657282         9.9150         1.0001         1.0007
     993        2667288         9.9250         1.0019         1.0013
     994        2671596         9.9350         1.0015         1.0019
     995        2677708         9.9450         1.0018         1.0011
     996        2678982         9.9550         1.0002         1.0011
     997        2688620         9.9650         1.0018         1.0012
     998        2693714         9.9750         1.0017         1.0018
     999        2700104         9.9850         1.0021         1.0025
    1000        2709636         9.9950         1.0036         1.0028
    1001        2710458        10.0050         1.0019         1.0023
    1002        2714350        10.0150         1.0013         1.0015
    1003        2721528        10.0250         1.0020         1.0018
    1004        2726774        10.0350         1.0019         1.0015
    1005        2728696        10.0450         1.0006         1.0014
    1006        2739232        10.0550         1.0025         1.0019
    1007        2743808        10.0650         1.0022         1.0020
    1008        2746350        10.0750         1.0011         1.0019
    1009        2757034        10.0850         1.0030         1.0020
    1010        2759900        10.0950         1.0020         1.0029
    1011        2769520        10.1050         1.0036         1.0029
    1012        2772140        10.1150         1.0025         1.0026
    1013        2775402        10.1250         1.0017         1.0021
    1014        2783728        10.1350         1.0027         1.0025
    1015        2788888        10.1450         1.0026         1.0023
    1016        2791500        10.1550         1.0016         1.0024
    1017        2802218        10.1650         1.0034         1.0026
    1018        2805114        10.1750         1.0025         1.0029
    1019        2810328        10.1850         1.0024         1.0022
    1020        2815450        10.1950         1.0023         1.0027
    1021        2824104        10.2050         1.0034         1.0027
    1022        2826316        10.2150         1.0022         1.0029
    1023        2835094        10.2250         1.0033         1.0028
    1024        2838966        10.2350         1.0028         1.0031
    1025        2844352        10.2450         1.0027         1.0021
    1026        2845862        10.2550         1.0013         1.0024
    1027        2858326        10.2650         1.0037         1.0025
    1028        2860534        10.2750         1.0025         1.0037
    1029        2871404        10.2850         1.0044         1.0033
    1030        2871032        10.2950         1.0023         1.0027
    1031        2876022        10.3050         1.0021         1.0027
    1032        2888350        10.3150         1.0044         1.0033
    1033        2887914        10.3250         1.0023         1.0027
    1034        2891886        10.3350         1.0018         1.0026
    1035        2905918        10.3450         1.0047         1.0035
    1036        2906460        10.3550         1.0029         1.0037
    1037        2911634        10.3650         1.0028         1.0022
    1038        2913406        10.3750         1.0015         1.0022
    1039        2924658        10.3850         1.0034         1.0030
    1040        2932462        10.3950         1.0041         1.0040
    1041        2937128        10.4050         1.0038         1.0043
    1042        2944192        10.4150         1.0043         1.0034
    1043        2942692        10.4250         1.0018         1.0029
    1044        2952588        10.4350         1.0033         1.0029
    1045        2958646        10.4450         1.0034         1.0030
    1046        2958874        10.4550         1.0016         1.0020
    1047        2964220        10.4650         1.0015         1.0014
    1048        2971506        10.4750         1.0020         1.0022
    1049        2980184        10.4850         1.0030         1.0026
    1050        2983844        10.4950         1.0024         1.0029
    1051        2992572        10.5050         1.0034         1.0031
    1052        2997230        10.5150         1.0030         1.0026
    1053        2997210        10.5250         1.0011         1.0021
    1054        3007390        10.5350         1.0026         1.0016
    1055        3009476        10.5450         1.0014         1.0023
    1056        3019744        10.5550         1.0029         1.0020
    1057        3022128        10.5650         1.0018         1.0025
    1058        3031266        10.5750         1.0029         1.0025
    1059        3036710        10.5850         1.0028         1.0031
    1060        3043066        10.5950         1.0030         1.0029
    1061        3046656        10.6050         1.0023         1.0020
    1062        3048252        10.6150         1.0010         1.0019
    1063        3060710        10.6250         1.0032         1.0023
    1064        3063758        10.6350         1.0023         1.0023
    1065        3066858        10.6450         1.0014         1.0021
    1066        3077586        10.6550         1.0030         1.0023
    1067        3079328        10.6650         1.0017         1.0018
    1068        3082450        10.6750         1.0008         1.0014
    1069        3092456        10.6850         1.0022         1.0014
    1070        3094820        10.6950         1.0011         1.0019
    1071        3103206        10.7050         1.0019         1.0010
    1072        3102848        10.7150         1.0000         1.0007
    1073        3111884        10.7250         1.0010         1.0010
    1074        3121780        10.7350         1.0023         1.0016
    1075        3122414        10.7450         1.0007         1.0013
    1076        3128956        10.7550         1.0009         1.0004
    1077        3132334        10.7650         1.0001         1.0007
    1078        3141720        10.7750         1.0012         1.0005
    1079        3144552        10.7850         1.0003         1.0009
    1080        3153930        10.7950         1.0014         1.0010
    1081        3159046        10.8050         1.0012         1.0012
    1082        3164318        10.8150         1.0010         1.0012
    1083        3172308        10.8250         1.0017         1.0015
    1084        3177374        10.8350         1.0014         1.0014
    1085        3181908        10.8450         1.0010         1.0014
    1086        3190636        10.8550         1.0019         1.0013
    1087        3192344        10.8650         1.0006         1.0012
    1088        3199850        10.8750         1.0011         1.0009
    1089        3204694        10.8850         1.0008         1.0002
    1090        3204416        10.8950         0.9989         1.0001
    1091        3218414        10.9050         1.0014         1.0003
    1092        3220922        10.9150         1.0003         1.0010
    1093        3227410        10.9250         1.0005         0.9998
    1094        3228732        10.9350         0.9991         1.0000
    1095        3240900        10.9450         1.0010         1.0004
    1096        3245458        10.9550         1.0006         1.0007
    1097        3248978        10.9650         0.9999         1.0001
    1098        3255364        10.9750         1.0000         0.9996
    1099        3258488        10.9850         0.9991         0.9998
    1100        3267860        10.9950         1.0002         0.9992
    1101        3267436        11.0050         0.9982         0.9992
    1102        3277982        11.0150         0.9996         0.9993
    1103        3285406        11.0250         1.0001         1.0000
    1104        3289372        11.0350         0.9995         0.9996
    1105        3294130        11.0450         0.9991         0.9990
    1106        3298776        11.0550         0.9987         0.9988
    1107        3305368        11.0650         0.9989         0.9988
    1108        3311718        11.0750         0.9990         0.9994
    1109        3321164        11.0850         1.0001         0.9994
    1110        3323342        11.0950         0.9989         0.9996
    1111        3332118        11.1050         0.9998         0.9993
    1112        3336220        11.1150         0.9992         0.9993
    1113        3341002        11.1250         0.9988         0.9990
    1114        3348022        11.1350         0.9991         0.9987
    1115        3351608        11.1450         0.9984         0.9992
    1116        3364168        11.1550         1.0003         0.9993
    1117        3365150        11.1650         0.9988         0.9998
    1118        3374684        11.1750         0.9999         0.9990
    1119        3375920        11.1850         0.9985         0.9994
    1120        3387844        11.1950         1.0002         0.9997
    1121        3393474        11.2050         1.0001         1.0000
    1122        3396780        11.2150         0.9993         0.9994
    1123        3402830        11.2250         0.9993         0.9993
    1124        3409970        11.2350         0.9996         0.9996
    1125        3415992        11.2450         0.9996         0.9990
    1126        3415518        11.2550         0.9976         0.9984
    1127        3425124        11.2650         0.9987         0.9981
    1128        3430770        11.2750         0.9985         0.9989
    1129        3439648        11.2850         0.9994         0.9990
    1130        3444892        11.2950         0.9991         0.9995
    1131        3453236        11.3050         0.9998         0.9995
    1132        3457438        11.3150         0.9992         0.9992
    1133        3461062        11.3250         0.9985         0.9988
    1134        3469706        11.3350         0.9992         0.9989
    1135        3474664        11.3450         0.9989         0.9990
    1136        3480302        11.3550         0.9987         0.9986
    1137        3485494        11.3650         0.9985         0.9986
    1138        3493056        11.3750         0.9989         0.9987
    1139        3498342        11.3850         0.9986         0.9987
    1140        3503822        11.3950         0.9984         0.9982
    1141        3507622        11.4050         0.9978         0.9985
    1142        3519202        11.4150         0.9993         0.9983
    1143        3518672        11.4250         0.9974         0.9983
    1144        3528176        11.4350         0.9984         0.9980
    1145        3534204        11.4450         0.9983         0.9983
    1146        3539598        11.4550         0.9981         0.9981
    1147        3546552        11.4650         0.9983         0.9986
    1148        3556326        11.4750         0.9993         0.9989
    1149        3560294        11.4850         0.9987         0.9990
    1150        3567282        11.4950         0.9989         0.9988
    1151        3573110        11.5050         0.9988         0.9987
    1152        3578276        11.5150         0.9985         0.9987
    1153        3585772        11.5250         0.9989         0.9986
    1154        3590588        11.5350         0.9985         0.9990
    1155        3598710        11.5450         0.9990         0.9981
    1156        3596246        11.5550         0.9966         0.9975
    1157        3607044        11.5650         0.9979         0.9977
    1158        3617560        11.5750         0.9990         0.9986
    1159        3621432        11.5850         0.9984         0.9987
    1160        3629386        11.5950         0.9988         0.9990
    1161        3638538        11.6050         0.9996         0.9993
    1162        3640430        11.6150         0.9984         0.9984
    1163        3642564        11.6250         0.9973         0.9977
    1164        3652360        11.6350         0.9983         0.9983
    1165        3662680        11.6450         0.9994         0.9989
    1166        3666936        11.6550         0.9988         0.9995
    1167        3676880        11.6650         0.9998         0.9989
    1168        3676754        11.6750         0.9981         0.9992
    1169        3689110        11.6850         0.9997         0.9986
    1170        3689080        11.6950         0.9980         0.9987
    1171        3698360        11.7050         0.9988         0.9987
    1172        3707918        11.7150         0.9997         0.9993
    1173        3712200        11.7250         0.9991         0.9998
    1174        3722698        11.7350         1.0002         0.9994
    1175        3722890        11.7450         0.9986         0.9993
    1176        3731600        11.7550         0.9992         0.9986
    1177        3735476        11.7650         0.9986         0.9993
    1178        3747026        11.7750         0.9999         0.9990
    1179        3747564        11.7850         0.9984         0.9993
    1180        3758138        11.7950         0.9995         0.9988
    1181        3760270        11.8050         0.9984         0.9987
    1182        3766906        11.8150         0.9984         0.9984
    1183        3774822        11.8250         0.9989         0.9986
    1184        3781300        11.8350         0.9989         0.9996
    1185        3796726        11.8450         1.0013         1.0004
    1186        3797574        11.8550         0.9998         1.0000
    1187        3800242        11.8650         0.9988         0.9992
    1188        3810320        11.8750         0.9998         0.9992
    1189        3814274        11.8850         0.9991         0.9997
    1190        3824300        11.8950         1.0001         0.9995
    1191        3828362        11.9050         0.9995         1.0003
    1192        3840828        11.9150         1.0010         1.0001
    1193        3840290        11.9250         0.9992         0.9997
    1194        3845578        11.9350         0.9989         0.9989
    1195        3851872        11.9450         0.9989         0.9987
    1196        3856420        11.9550         0.9984         0.9985
    1197        3862468        11.9650         0.9983         0.9980
    1198        3867230        11.9750         0.9978         0.9985
    1199        3881564        11.9850         0.9999         0.9990
    1200        3884588        11.9950         0.9990         0.9998
    1201        3896466        12.0050         1.0004         0.9999
    1202        3901728        12.0150         1.0000         1.0003
    1203        3907684        12.0250         0.9999         0.9997
    1204        3911710        12.0350         0.9993         0.9995
    1205        3920464        12.0450         0.9998         1.0000
    1206        3931188        12.0550         1.0009         1.0006
    1207        3935198        12.0650         1.0003         1.0004
    1208        3938672        12.0750         0.9995         0.9991
    1209        3940714        12.0850         0.9984         0.9994
    1210        3957672        12.0950         1.0010         0.9997
    1211        3956414        12.1050         0.9990         0.9999
    1212        3965566        12.1150         0.9997         0.9993
    1213        3972104        12.1250         0.9997         0.9999
    1214        3979806        12.1350         1.0000         0.9996
    1215        3982558        12.1450         0.9990         0.9994
    1216        3991480        12.1550         0.9996         0.9997
    1217        4001588        12.1650         1.0005         1.0002
    1218        4006118        12.1750         1.0000         1.0002
    1219        4013880        12.1850         1.0003         1.0004
    1220        4023220        12.1950         1.0010         1.0005
    1221        4025864        12.2050         1.0000         1.0004
    1222        4034052        12.2150         1.0004         1.0003
    1223        4040634        12.2250         1.0004         1.0000
    1224        4042386        12.2350         0.9992         0.9998
    1225        4053792        12.2450         1.0004         1.0001
    1226        4060790        12.2550         1.0004         1.0002
    1227        4062626        12.2650         0.9993         0.9996
    1228        4070654        12.2750         0.9996         0.9996
    1229        4079132        12.2850         1.0001         0.9996
    1230        4080594        12.2950         0.9988         0.9991
    1231        4088294        12.3050         0.9990         0.9994
    1232        4102220        12.3150         1.0008         1.0003
    1233        4106866        12.3250         1.0003         1.0003
    1234        4110324        12.3350         0.9996         1.0000
    1235        4121680        12.3450         1.0007         1.0004
    1236        4130172        12.3550         1.0011         1.0012
    1237        4136634        12.3650         1.0011         1.0008
    1238        4138752        12.3750         1.0000         1.0004
    1239        4146434        12.3850         1.0002         0.9997
    1240        4148376        12.3950         0.9991         0.9993
    1241        4155842        12.4050         0.9992         0.9996
    1242        4168072        12.4150         1.0006         0.9997
    1243        4168704        12.4250         0.9991         1.0002
    1244        4183898        12.4350         1.0011         1.0003
    1245        4188684        12.4450         1.0007         1.0012
    1246        4199248        12.4550         1.0016         1.0015
    1247        4206960        12.4650         1.0018         1.0015
    1248        4208682        12.4750         1.0006         1.0010
    1249        4215746        12.4850         1.0007         1.0005
    1250        4220944        12.4950         1.0003         1.0004
    1251        4229136        12.5050         1.0007         1.0012
    1252        4243190        12.5150         1.0024         1.0014
    1253        4240846        12.5250         1.0002         1.0008
    1254        4246852        12.5350         1.0001         1.0003
    1255        4258022        12.5450         1.0011         1.0005
    1256        4260984        12.5550         1.0002         1.0008
    1257        4271618        12.5650         1.0011         1.0005
    1258        4274458        12.5750         1.0002         1.0008
    1259        4285438        12.5850         1.0011         1.0007
    1260        4289746        12.5950         1.0006         1.0007
    1261        4296300        12.6050         1.0005         1.0007
    1262        4306796        12.6150         1.0014         1.0011
    1263        4311258        12.6250         1.0008         1.0007
    1264        4313432        12.6350         0.9997         1.0000
    1265        4321926        12.6450         1.0001         1.0000
    1266        4330058        12.6550         1.0004         1.0004
    1267        4338822        12.6650         1.0009         1.0010
    1268        4347286        12.6750         1.0012         1.0008
    1269        4349376        12.6850         1.0001         1.0007
    1270        4360008        12.6950         1.0010         1.0007
    1271        4365748        12.7050         1.0007         1.0007
    1272        4369248        12.7150         1.0000         1.0000
    1273        4375088        12.7250         0.9997         1.0001
    1274        4386854        12.7350         1.0008         1.0003
    1275        4389900        12.7450         1.0000         1.0004
    1276        4399380        12.7550         1.0005         1.0003
    1277        4407172        12.7650         1.0008         1.0009
    1278        4415766        12.7750         1.0011         1.0008
    1279        4418456        12.7850         1.0002         1.0004
    1280        4425300        12.7950         1.0002         1.0002
    1281        4435016        12.8050         1.0008         1.0008
    1282        4442912        12.8150         1.0010         1.0009
    1283        4446106        12.8250         1.0002         1.0001
    1284        4449272        12.8350         0.9993         0.9997
    1285        4460644        12.8450         1.0003         1.0002
    1286        4470160        12.8550         1.0009         1.0009
    1287        4475972        12.8650         1.0006         1.0005
    1288        4477716        12.8750         0.9995         0.9997
    1289        4484152        12.8850         0.9994         0.9994
    1290        4491382        12.8950         0.9994         0.9991
    1291        4495232        12.9050         0.9987         0.9990
    1292        4505514        12.9150         0.9995         0.9995
    1293        4517170        12.9250         1.0005         1.0002
    1294        4523556        12.9350         1.0004         1.0006
    1295        4532344        12.9450         1.0008         1.0004
    1296        4536550        12.9550         1.0001         1.0006
    1297        4547764        12.9650         1.0011         1.0004
    1298        4550650        12.9750         1.0002         1.0012
    1299        4566426        12.9850         1.0021         1.0005
    1300        4558894        12.9950         0.9989         1.0003
    1301        4573842        13.0050         1.0006         1.0000
    1302        4582046        13.0150         1.0009         1.0007
    1303        4586324        13.0250         1.0003         1.0007
    1304        4596970        13.0350         1.0011         1.0008
    1305        4601646        13.0450         1.0005         1.0003
    1306        4602158        13.0550         0.9991         0.9996
    1307        4612872        13.0650         0.9999         0.9995
    1308        4620312        13.0750         1.0000         1.0003
    1309        4630858        13.0850         1.0007         1.0003
    1310        4635106        13.0950         1.0001         1.0006
    1311        4645860        13.1050         1.0009         1.0005
    1312        4648376        13.1150         0.9999         1.0000
    1313        4651952        13.1250         0.9992         0.9995
    1314        4663204        13.1350         1.0001         0.9998
    1315        4670110        13.1450         1.0000         1.0000
    1316        4676314        13.1550         0.9998         1.0004
    1317        4689904        13.1650         1.0012         1.0003
    1318        4687680        13.1750         0.9992         1.0000
    1319        4696872        13.1850         0.9997         0.9993
    1320        4703086        13.1950         0.9995         0.9996
    1321        4711384        13.2050         0.9997         0.9997
    1322        4718750        13.2150         0.9998         0.9997
    1323        4724772        13.2250         0.9995         0.9997
    1324        4733406        13.2350         0.9998         0.9998
    1325        4741670        13.2450         1.0001         1.0003
    1326        4751356        13.2550         1.0006         1.0000
    1327        4750566        13.2650         0.9989         0.9999
    1328        4763600        13.2750         1.0002         0.9991
    1329        4762050        13.2850         0.9983         0.9993
    1330        4778112        13.2950         1.0002         0.9998
    1331        4788906        13.3050         1.0010         1.0009
    1332        4793520        13.3150         1.0004         1.0004
    1333        4796168        13.3250         0.9995         0.9996
    1334        4803478        13.3350         0.9995         0.9996
    1335        4812870        13.3450         0.9999         0.9995
    1336        4815236        13.3550         0.9989         0.9993
    1337        4825744        13.3650         0.9996         0.9997
    1338        4838274        13.3750         1.0007         1.0002
    1339        4840202        13.3850         0.9996         1.0001
    1340        4848174        13.3950         0.9998         0.9996
    1341        4854326        13.4050         0.9995         0.9994
    1342        4860492        13.4150         0.9993         1.0000
    1343        4876502        13.4250         1.0011         1.0002
    1344        4876146        13.4350         0.9996         1.0002
    1345        4885260        13.4450         0.9999         0.9997
    1346        4893414        13.4550         1.0001         1.0003
    1347        4903468        13.4650         1.0007         1.0006
    1348        4908916        13.4750         1.0003         1.0002
    1349        4911124        13.4850         0.9993         0.9995
    1350        4919262        13.4950         0.9995         0.9994
    1351        4927898        13.5050         0.9997         0.9997
    1352        4936004        13.5150         0.9999         0.9999
    1353        4942412        13.5250         0.9997         0.9996
    1354        4947092        13.5350         0.9992         0.9995
    1355        4956914        13.5450         0.9997         0.9993
    1356        4960214        13.5550         0.9989         0.9992
    1357        4969934        13.5650         0.9994         0.9993
    1358        4979058        13.5750         0.9997         0.9995
    1359        4984280        13.5850         0.9993         0.9995
    1360        4993062        13.5950         0.9996         0.9994
    1361        5000202        13.6050         0.9995         0.9996
    1362        5009274        13.6150         0.9999         0.9999
    1363        5017962        13.6250         1.0001         0.9999
    1364        5022426        13.6350         0.9996         1.0001
    1365        5034458        13.6450         1.0005         1.0000
    1366        5036686        13.6550         0.9995         0.9995
    1367        5041386        13.6650         0.9989         0.9995
    1368        5056996        13.6750         1.0006         0.9997
    1369        5058728        13.6850         0.9994         1.0002
    1370        5071604        13.6950         1.0005         1.0001
    1371        5077002        13.7050         1.0001         1.0000
    1372        5079580        13.7150         0.9992         0.9996
    1373        5092578        13.7250         1.0003         1.0000
    1374        5102128        13.7350         1.0007         1.0008
    1375        5110776        13.7450         1.0009         1.0007
    1376        5114674        13.7550         1.0002         1.0007
    1377        5125474        13.7650         1.0009         1.0004
    1378        5128806        13.7750         1.0001         1.0009
    1379        5142122        13.7850         1.0012         0.9999
    1380        5135396        13.7950         0.9985         1.0002
    1381        5157856        13.8050         1.0014         1.0000
    1382        5156540        13.8150         0.9997         1.0004
    1383        5163688        13.8250         0.9996         0.9994
    1384        5170212        13.8350         0.9994         0.9996
    1385        5180150        13.8450         0.9999         0.9998
    1386        5190172        13.8550         1.0004         1.0007
    1387        5204046        13.8650         1.0016         1.0011
    1388        5205892        13.8750         1.0005         1.0010
    1389        5214170        13.8850         1.0007         1.0003
    1390        5217072        13.8950         0.9998         1.0003
    1391        5227770        13.9050         1.0004         1.0000
    1392        5232006        13.9150         0.9998         1.0003
    1393        5243696        13.9250         1.0006         1.0002
    1394        5248660        13.9350         1.0001         1.0002
    1395        5254982        13.9450         0.9999         1.0002
    1396        5267038        13.9550         1.0007         1.0003
    1397        5271344        13.9650         1.0001         1.0005
    1398        5279900        13.9750         1.0003         0.9998
    1399        5280428        13.9850         0.9990         0.9997
    1400        5292952        13.9950         0.9999         0.9991
    1401        5294068        14.0050         0.9987         0.9994
    1402        5308384        14.0150         1.0000         0.9998
    1403        5319376        14.0250         1.0006         1.0002
    1404        5321408        14.0350         0.9996         1.0003
    1405        5335592        14.0450         1.0008         1.0002
    1406        5339516        14.0550         1.0001         1.0004
    1407        5345152        14.0650         0.9997         0.9996
    1408        5349574        14.0750         0.9991         0.9994
    1409        5359222        14.0850         0.9995         0.9995
    1410        5367348        14.0950         0.9996         0.9992
    1411        5368078        14.1050         0.9983         0.9989
    1412        5380708        14.1150         0.9993         0.9991
    1413        5392058        14.1250         1.0000         0.9999
    1414        5399632        14.1350         1.0000         0.9998
    1415        5404056        14.1450         0.9994         0.9994
    1416        5412994        14.1550         0.9996         1.0001
    1417        5431184        14.1650         1.0015         1.0006
    1418        5428880        14.1750         0.9997         1.0005
    1419        5437262        14.1850         0.9998         0.9990
    1420        5435798        14.1950         0.9982         0.9993
    1421        5457342        14.2050         1.0007         0.9999
    1422        5462814        14.2150         1.0003         1.0004
    1423        5467148        14.2250         0.9997         1.0001
    1424        5480006        14.2350         1.0006         1.0003
    1425        5486158        14.2450         1.0003         1.0006
    1426        5494266        14.2550         1.0004         1.0002
    1427        5498312        14.2650         0.9998         1.0001
    1428        5509294        14.2750         1.0003         1.0001
    1429        5515588        14.2850         1.0001         1.0002
    1430        5523858        14.2950         1.0002         1.0004
    1431        5535058        14.3050         1.0008         1.0003
    1432        5534918        14.3150         0.9994         0.9998
    1433        5544082        14.3250         0.9997         1.0000
    1434        5559390        14.3350         1.0010         1.0002
    1435        5557952        14.3450         0.9994         1.0001
    1436        5570162        14.3550         1.0002         0.9997
    1437        5576108        14.3650         0.9998         1.0000
    1438        5585250        14.3750         1.0001         1.0000
    1439        5593932        14.3850         1.0002         1.0003
    1440        5602594        14.3950         1.0004         1.0004
    1441        5609956        14.4050         1.0003         1.0002
    1442        5615498        14.4150         0.9999         1.0001
    1443        5624010        14.4250         1.0001         0.9999
    1444        5630888        14.4350         0.9999         0.9999
    1445        5639188        14.4450         1.0000         1.0000
    1446        5648268        14.4550         1.0002         1.0000
    1447        5654248        14.4650         0.9999         1.0001
    1448        5663346        14.4750         1.0001         0.9998
    1449        5668090        14.4850         0.9996         1.0000
    1450        5682458        14.4950         1.0007         1.0006
    1451        5692804        14.5050         1.0011         1.0006
    1452        5691748        14.5150         0.9996         1.0003
    1453        5705444        14.5250         1.0006         1.0001
    1454        5710690        14.5350         1.0002         1.0005
    1455        5718734        14.5450         1.0002         0.9997
    1456        5720276        14.5550         0.9991         0.9997
    1457        5735532        14.5650         1.0004         0.9998
    1458        5740616        14.5750         0.9999         1.0004
    1459        5752600        14.5850         1.0006         1.0000
    1460        5753150        14.5950         0.9993         0.9999
    1461        5766528        14.6050         1.0003         1.0000
    1462        5775850        14.6150         1.0005         1.0006
    1463        5784508        14.6250         1.0007         1.0006
    1464        5792120        14.6350         1.0006         1.0006
    1465        5799200        14.6450         1.0005         1.0004
    1466        5803110        14.6550         0.9998         0.9996
    1467        5806570        14.6650         0.9990         0.9994
    1468        5820598        14.6750         1.0000         0.9995
    1469        5826102        14.6850         0.9996         1.0003
    1470        5841286        14.6950         1.0009         1.0001
    1471        5840422        14.7050         0.9994         0.9998
    1472        5849250        14.7150         0.9995         0.9997
    1473        5864686        14.7250         1.0008         1.0005
    1474        5872984        14.7350         1.0008         1.0008
    1475        5877620        14.7450         1.0003         1.0002
    1476        5881928        14.7550         0.9997         1.0000
    1477        5893682        14.7650         1.0003         0.9999
    1478        5898176        14.7750         0.9997         0.9999
    1479        5905910        14.7850         0.9997         0.9994
    1480        5912546        14.7950         0.9994         1.0001
    1481        5931350        14.8050         1.0013         1.0005
    1482        5931794        14.8150         1.0000         1.0001
    1483        5934062        14.8250         0.9990         0.9996
    1484        5951238        14.8350         1.0006         1.0000
    1485        5957558        14.8450         1.0003         1.0003
    1486        5963678        14.8550         0.9999         1.0003
    1487        5977478        14.8650         1.0009         1.0006
    1488        5983448        14.8750         1.0006         1.0007
    1489        5989834        14.8850         1.0003         1.0001
    1490        5993868        14.8950         0.9996         1.0001
    1491        6007730        14.9050         1.0006         1.0001
    1492        6011578        14.9150         0.9999         1.0003
    1493        6022380        14.9250         1.0003         1.0001
    1494        6029862        14.9350         1.0002         1.0003
    1495        6037944        14.9450         1.0002         1.0002
    1496        6045246        14.9550         1.0001         1.0001
    1497        6051136        14.9650         0.9998         0.9997
    1498        6057052        14.9750         0.9994         0.9996
    1499        6067726        14.9850         0.9998         0.9995
    1500        6072806        14.9950         0.9993         0.9999
    1501        6087598        15.0050         1.0004         0.9998
    1502        6089566        15.0150         0.9994         0.9998
    1503        6099880        15.0250         0.9998         0.9999
    1504        6114198        15.0350         1.0008         1.0006
    1505        6121406        15.0450         1.0006         1.0007
    1506        6126524        15.0550         1.0001         1.0001
    1507        6132188        15.0650         0.9997         0.9999
    1508        6142726        15.0750         1.0001         1.0002
    1509        6153196        15.0850         1.0005         1.0002
    1510        6155316        15.0950         0.9995         0.9998
    1511        6162350        15.1050         0.9993         0.9992
    1512        6170394        15.1150         0.9993         0.9996
    1513        6182482        15.1250         1.0000         0.9993
    1514        6182340        15.1350         0.9986         0.9994
    1515        6198874        15.1450         1.0000         0.9993
    1516        6201628        15.1550         0.9991         0.9993
    1517        6209308        15.1650         0.9990         0.9991
    1518        6223702        15.1750         1.0000         1.0000
    1519        6237082        15.1850         1.0008         1.0004
    1520        6239250        15.1950         0.9999         1.0003
    1521        6248830        15.2050         1.0001         0.9999
    1522        6254698        15.2150         0.9997         0.9997
    1523        6260964        15.2250         0.9994         0.9995
    1524        6271438        15.2350         0.9997         0.9997
    1525        6280736        15.2450         0.9999         1.0000
    1526        6289480        15.2550         1.0000         0.9997
    1527        6293056        15.2650         0.9993         0.9996
    1528        6305224        15.2750         0.9999         0.9998
    1529        6315926        15.2850         1.0003         1.0001
    1530        6321874        15.2950         0.9999         1.0001
    1531        6331184        15.3050         1.0001         0.9999
    1532        6337222        15.3150         0.9997         0.9998
    1533        6346060        15.3250         0.9998         1.0000
    1534        6359630        15.3350         1.0006         1.0003
    1535        6362612        15.3450         0.9998         0.9998
    1536        6367138        15.3550         0.9992         0.9996
    1537        6382156        15.3650         1.0003         0.9998
    1538        6388626        15.3750         1.0000         1.0002
    1539        6397604        15.3850         1.0001         1.0001
    1540        6405716        15.3950         1.0000         0.9998
    1541        6408944        15.4050         0.9992         0.9996
    1542        6420446        15.4150         0.9997         0.9995
    1543        6428316        15.4250         0.9997         0.9999
    1544        6438866        15.4350         1.0000         0.9998
    1545        6443820        15.4450         0.9995         0.9994
    1546        6448332        15.4550         0.9989         0.9993
    1547        6466284        15.4650         1.0004         1.0002
    1548        6477478        15.4750         1.0008         1.0004
    1549        6477150        15.4850         0.9995         1.0001
    1550        6489142        15.4950         1.0000         0.9995
    1551        6491772        15.5050         0.9991         0.9996
    1552        6504918        15.5150         0.9999         0.9995
    1553        6510716        15.5250         0.9995         0.9999
    1554        6522112        15.5350         0.9999         0.9994
    1555        6523530        15.5450         0.9989         0.9994
    1556        6538938        15.5550         0.9999         0.9998
    1557        6551196        15.5650         1.0005         1.0003
    1558        6554454        15.5750         0.9997         0.9998
    1559        6559904        15.5850         0.9993         0.9998
    1560        6578006        15.5950         1.0008         1.0001
    1561        6578934        15.6050         0.9996         1.0000
    1562        6585378        15.6150         0.9993         0.9993
    1563        6594816        15.6250         0.9995         0.9994
    1564        6604532        15.6350         0.9997         0.9998
    1565        6616490        15.6450         1.0002         0.9999
    1566        6620678        15.6550         0.9996         0.9999
    1567        6632390        15.6650         1.0000         0.9996
    1568        6636282        15.6750         0.9994         0.9998
    1569        6650504        15.6850         1.0002         1.0000
    1570        6660172        15.6950         1.0004         1.0005
    1571        6669024        15.7050         1.0004         1.0004
    1572        6674870        15.7150         1.0001         1.0001
    1573        6682098        15.7250         0.9999         0.9997
    1574        6687458        15.7350         0.9994         0.9997
    1575        6702968        15.7450         1.0004         1.0004
    1576        6715810        15.7550         1.0011         1.0006
    1577        6714434        15.7650         0.9996         1.0001
    1578        6724458        15.7750         0.9998         0.9996
    1579        6729960        15.7850         0.9994         0.9994
    1580        6736598        15.7950         0.9991         0.9991
    1581        6744958        15.8050         0.9991         0.9992
    1582        6757988        15.8150         0.9997         0.9995
    1583        6765838        15.8250         0.9996         0.9998
    1584        6777238        15.8350         1.0001         0.9999
    1585        6784756        15.8450         0.9999         1.0001
    1586        6795266        15.8550         1.0002         1.0000
    1587        6801232        15.8650         0.9998         0.9999
    1588        6808992        15.8750         0.9997         0.9998
    1589        6820314        15.8850         1.0001         0.9998
    1590        6824560        15.8950         0.9995         0.9996
    1591        6831774        15.9050         0.9993         0.9992
    1592        6841794        15.9150         0.9995         0.9995
    1593        6854510        15.9250         1.0001         1.0003
    1594        6869196        15.9350         1.0009         1.0003
    1595        6866210        15.9450         0.9993         0.9998
    1596        6876876        15.9550         0.9996         0.9994
    1597        6890362        15.9650         1.0003         1.0004
    1598        6906128        15.9750         1.0013         1.0011
    1599        6911838        15.9850         1.0009         1.0008
    1600        6914518        15.9950         1.0000         1.0002
    1601        6923310        16.0050         1.0000         0.9998
    1602        6929728        16.0150         0.9997         1.0000
    1603        6942666        16.0250         1.0003         1.0000
    1604        6949316        16.0350         1.0000         1.0003
    1605        6963152        16.0450         1.0008         1.0006
    1606        6971590        16.0550         1.0007         1.0008
    1607        6977698        16.0650         1.0004         1.0001
    1608        6977126        16.0750         0.9990         0.9993
    1609        6985076        16.0850         0.9989         0.9990
    1610        6997710        16.0950         0.9995         0.9993
    1611        7006084        16.1050         0.9995         0.9995
    1612        7016040        16.1150         0.9996         0.9999
    1613        7032236        16.1250         1.0007         1.0005
    1614        7040930        16.1350         1.0007         1.0007
    1615        7046474        16.1450         1.0002         1.0003
    1616        7052308        16.1550         0.9998         0.9999
    1617        7060188        16.1650         0.9997         0.9996
    1618        7068212        16.1750         0.9996         0.9998
    1619        7081024        16.1850         1.0002         0.9998
    1620        7086404        16.1950         0.9997         1.0001
    1621        7100036        16.2050         1.0004         1.0000
    1622        7104622        16.2150         0.9998         1.0002
    1623        7117062        16.2250         1.0003         0.9999
    1624        7120440        16.2350         0.9996         1.0002
    1625        7136574        16.2450         1.0006         0.9997
    1626        7131196        16.2550         0.9986         0.9992
    1627        7142046        16.2650         0.9989         0.9989
    1628        7158992        16.2750         1.0000         0.9998
    1629        7167842        16.2850         1.0000         1.0002
    1630        7177510        16.2950         1.0002         1.0003
    1631        7188382        16.3050         1.0005         1.0002
    1632        7191376        16.3150         0.9996         0.9999
    1633        7200634        16.3250         0.9997         0.9997
    1634        7210828        16.3350         0.9999         0.9997
    1635        7216580        16.3450         0.9995         0.9999
    1636        7231810        16.3550         1.0004         0.9997
    1637        7232934        16.3650         0.9993         0.9999
    1638        7249606        16.3750         1.0004         1.0002
    1639        7260084        16.3850         1.0006         1.0001
    1640        7256458        16.3950         0.9989         0.9995
    1641        7270776        16.4050         0.9996         0.9994
    1642        7283120        16.4150         1.0001         1.0002
    1643        7296360        16.4250         1.0007         1.0005
    1644        7303366        16.4350         1.0004         1.0007
    1645        7316512        16.4450         1.0010         1.0008
    1646        7324942        16.4550         1.0010         1.0011
    1647        7333668        16.4650         1.0009         1.0008
    1648        7339416        16.4750         1.0005         1.0006
    1649        7348126        16.4850         1.0005         1.0005
    1650        7355926        16.4950         1.0003         1.0001
    1651        7359068        16.5050         0.9995         0.9999
    1652        7372758        16.5150         1.0002         0.9999
    1653        7379362        16.5250         0.9999         1.0000
    1654        7388324        16.5350         0.9999         0.9998
    1655        7398808        16.5450         1.0001         1.0006
    1656        7419354        16.5550         1.0016         1.0009
    1657        7416998        16.5650         1.0001         1.0004
    1658        7420400        16.5750         0.9994         0.9996
    1659        7435534        16.5850         1.0002         1.0000
    1660        7446204        16.5950         1.0004         1.0004
    1661        7452540        16.6050         1.0001         1.0001
    1662        7459590        16.6150         0.9998         0.9999
    1663        7470556        16.6250         1.0001         1.0000
    1664        7478348        16.6350         0.9999         1.0000
    1665        7484826        16.6450         0.9996         0.9994
    1666        7488808        16.6550         0.9989         0.9993
    1667        7505778        16.6650         1.0000         0.9998
    1668        7517856        16.6750         1.0004         1.0001
    1669        7522266        16.6850         0.9998         1.0003
    1670        7537850        16.6950         1.0007         1.0002
    1671        7542158        16.7050         1.0000         1.0002
    1672        7550366        16.7150         0.9999         1.0000
    1673        7563100        16.7250         1.0004         1.0004
    1674        7571666        16.7350         1.0003         1.0001
    1675        7571590        16.7450         0.9991         0.9995
    1676        7582798        16.7550         0.9994         0.9994
    1677        7596478        16.7650         1.0000         0.9998
    1678        7604776        16.7750         0.9999         1.0001
    1679        7616030        16.7850         1.0002         1.0001
    1680        7622478        16.7950         0.9999         0.9999
    1681        7630022        16.8050         0.9997         0.9996
    1682        7637656        16.8150         0.9995         0.9996
    1683        7650542        16.8250         1.0000         1.0000
    1684        7664876        16.8350         1.0007         1.0005
    1685        7673560        16.8450         1.0006         1.0006
    1686        7681450        16.8550         1.0004         1.0008
    1687        7695772        16.8650         1.0011         1.0005
    1688        7692892        16.8750         0.9996         1.0001
    1689        7704032        16.8850         0.9998         0.9998
    1690        7716458        16.8950         1.0003         1.0000
    1691        7721486        16.9050         0.9997         1.0001
    1692        7736496        16.9150         1.0005         1.0003
    1693        7745240        16.9250         1.0004         1.0003
    1694        7749294        16.9350         0.9998         1.0002
    1695        7764260        16.9450         1.0005         1.0001
    1696        7769408        16.9550         1.0000         1.0005
    1697        7785010        16.9650         1.0008         1.0004
    1698        7787726        16.9750         1.0000         1.0000
    1699        7789688        16.9850         0.9991         0.9995
    1700        7807442        16.9950         1.0002         0.9998
    1701        7816542        17.0050         1.0002         1.0003
    1702        7825680        17.0150         1.0002         1.0001
    1703        7832886        17.0250         0.9999         0.9998
    1704        7838790        17.0350         0.9995         0.9998
    1705        7854640        17.0450         1.0003         1.0000
    1706        7861472        17.0550         1.0000         1.0002
    1707        7871182        17.0650         1.0001         0.9999
    1708        7877572        17.0750         0.9997         1.0000
    1709        7891948        17.0850         1.0004         1.0001
    1710        7899908        17.0950         1.0002         1.0004
    1711        7910476        17.1050         1.0004         1.0003
    1712        7918674        17.1150         1.0002         1.0002
    1713        7924534        17.1250         0.9998         0.9999
    1714        7932140        17.1350         0.9996         0.9996
    1715        7942372        17.1450         0.9997         0.9998
    1716        7954018        17.1550         1.0000         1.0000
    1717        7963418        17.1650         1.0000         1.0000
    1718        7969064        17.1750         0.9996         0.9996
    1719        7976038        17.1850         0.9993         0.9995
    1720        7991978        17.1950         1.0001         1.0001
    1721        8003968        17.2050         1.0005         1.0001
    1722        8005454        17.2150         0.9995         1.0000
    1723        8020672        17.2250         1.0002         0.9998
    1724        8027128        17.2350         0.9999         1.0004
    1725        8044930        17.2450         1.0009         1.0002
    1726        8042082        17.2550         0.9994         1.0001
    1727        8056142        17.2650         1.0000         0.9997
    1728        8063738        17.2750         0.9998         0.9997
    1729        8069786        17.2850         0.9994         0.9998
    1730        8086390        17.2950         1.0003         0.9997
    1731        8088662        17.3050         0.9994         1.0000
    1732        8106430        17.3150         1.0004         1.0000
    1733        8112398        17.3250         1.0000         1.0002
    1734        8121002        17.3350         0.9999         1.0001
    1735        8134656        17.3450         1.0005         1.0001
    1736        8137198        17.3550         0.9996         0.9999
    1737        8148062        17.3650         0.9998         0.9998
    1738        8161342        17.3750         1.0003         1.0001
    1739        8167120        17.3850         0.9998         1.0000
    1740        8174756        17.3950         0.9996         0.9995
    1741        8180350        17.4050         0.9992         0.9992
    1742        8192858        17.4150         0.9995         0.9998
    1743        8212568        17.4250         1.0008         1.0004
    1744        8216580        17.4350         1.0001         1.0003
    1745        8223686        17.4450         0.9998         0.9999
    1746        8235422        17.4550         1.0001         1.0002
    1747        8247930        17.4650         1.0005         1.0002
    1748        8251542        17.4750         0.9998         1.0000
    1749        8261404        17.4850         0.9998         0.9997
    1750        8268142        17.4950         0.9995         0.9996
    1751        8279582        17.5050         0.9998         0.9997
    1752        8291218        17.5150         1.0000         1.0001
    1753        8304924        17.5250         1.0005         1.0004
    1754        8310994        17.5350         1.0001         1.0000
    1755        8313018        17.5450         0.9992         0.9995
    1756        8326258        17.5550         0.9997         0.9995
    1757        8337740        17.5650         0.9999         1.0001
    1758        8351228        17.5750         1.0004         0.9998
    1759        8348624        17.5850         0.9989         0.9998
    1760        8371264        17.5950         1.0005         0.9998
    1761        8375596        17.6050         0.9999         1.0002
    1762        8386348        17.6150         1.0000         1.0000
    1763        8396418        17.6250         1.0001         0.9999
    1764        8400588        17.6350         0.9995         0.9996
    1765        8411176        17.6450         0.9996         0.9998
    1766        8428838        17.6550         1.0006         1.0000
    1767        8431226        17.6650         0.9997         1.0003
    1768        8446356        17.6750         1.0004         0.9998
    1769        8448192        17.6850         0.9995         1.0000
    1770        8464832        17.6950         1.0003         0.9998
    1771        8467362        17.7050         0.9995         0.9997
    1772        8477556        17.7150         0.9995         0.9996
    1773        8492344        17.7250         1.0001         1.0001
    1774        8503044        17.7350         1.0003         1.0001
    1775        8506476        17.7450         0.9996         0.9998
    1776        8519698        17.7550         1.0000         1.0000
    1777        8534450        17.7650         1.0006         1.0003
    1778        8539370        17.7750         1.0000         1.0003
    1779        8549614        17.7850         1.0001         1.0000
    1780        8557144        17.7950         0.9999         0.9999
    1781        8566020        17.8050         0.9998         0.9997
    1782        8574006        17.8150         0.9996         0.9997
    1783        8585862        17.8250         0.9998         0.9996
    1784        8593712        17.8350         0.9996         1.0000
    1785        8610488        17.8450         1.0005         1.0001
    1786        8615762        17.8550         1.0000         1.0001
    1787        8624864        17.8650         0.9999         1.0000
    1788        8637852        17.8750         1.0003         1.0000
    1789        8642626        17.8850         0.9997         1.0000
    1790        8655972        17.8950         1.0001         0.9999
    1791        8664202        17.9050         1.0000         1.0002
    1792        8677496        17.9150         1.0004         1.0002
    1793        8683802        17.9250         1.0000         1.0002
    1794        8693898        17.9350         1.0000         1.0000
    1795        8703160        17.9450         1.0000         0.9999
    1796        8709170        17.9550         0.9996         0.9998
    1797        8722910        17.9650         1.0000         0.9998
    1798        8731216        17.9750         0.9999         1.0003
    1799        8749378        17.9850         1.0008         1.0002
    1800        8747228        17.9950         0.9995         1.0000
    1801        8760402        18.0050         0.9999         0.9997
    1802        8770862        18.0150         1.0000         0.9998
    1803        8775444        18.0250         0.9994         0.9995
    1804        8784886        18.0350         0.9993         0.9994
    1805        8799882        18.0450         0.9999         0.9999
    1806        8812678        18.0550         1.0003         1.0003
    1807        8823294        18.0650         1.0004         1.0002
    1808        8827280        18.0750         0.9997         0.9999
    1809        8836068        18.0850         0.9996         0.9995
    1810        8846340        18.0950         0.9997         0.9998
    1811        8861124        18.1050         1.0002         1.0001
    1812        8869488        18.1150         1.0001         1.0001
    1813        8878570        18.1250         1.0000         1.0000
    1814        8888672        18.1350         1.0000         1.0000
    1815        8898362        18.1450         1.0000         1.0001
    1816        8911848        18.1550         1.0004         1.0003
    1817        8920646        18.1650         1.0003         1.0002
    1818        8924198        18.1750         0.9996         0.9997
    1819        8932004        18.1850         0.9994         0.9995
    1820        8945804        18.1950         0.9998         0.9996
    1821        8953240        18.2050         0.9996         0.9999
    1822        8968866        18.2150         1.0002         0.9999
    1823        8975900        18.2250         0.9999         1.0001
    1824        8987630        18.2350         1.0001         0.9998
    1825        8992080        18.2450         0.9995         1.0000
    1826        9009214        18.2550         1.0003         0.9995
    1827        9004914        18.2650         0.9987         0.9997
    1828        9029950        18.2750         1.0004         0.9997
    1829        9037026        18.2850         1.0001         1.0004
    1830        9049208        18.2950         1.0004         1.0001
    1831        9053948        18.3050         0.9998         0.9999
    1832        9061368        18.3150         0.9995         0.9996
    1833        9073840        18.3250         0.9998         0.9999
    1834        9089648        18.3350         1.0004         1.0004
    1835        9101024        18.3450         1.0006         1.0004
    1836        9104400        18.3550         0.9999         1.0003
    1837        9120850        18.3650         1.0006         1.0003
    1838        9127198        18.3750         1.0002         1.0002
    1839        9131464        18.3850         0.9996         0.9998
    1840        9145722        18.3950         1.0001         0.9999
    1841        9155610        18.4050         1.0001         1.0002
    1842        9167404        18.4150         1.0003         0.9999
    1843        9171232        18.4250         0.9996         1.0000
    1844        9190568        18.4350         1.0006         1.0003
    1845        9200214        18.4450         1.0006         1.0006
    1846        9205778        18.4550         1.0001         1.0001
    1847        9212132        18.4650         0.9997         0.9996
    1848        9219598        18.4750         0.9994         0.9996
    1849        9234292        18.4850         0.9999         0.9997
    1850        9240618        18.4950         0.9995         0.9997
    1851        9251396        18.5050         0.9996         0.9996
    1852        9261988        18.5150         0.9997         0.9996
    1853        9270426        18.5250         0.9995         0.9997
    1854        9286394        18.5350         1.0002         1.0001
    1855        9299216        18.5450         1.0005         1.0001
    1856        9299686        18.5550         0.9994         1.0001
    1857        9319354        18.5650         1.0005         0.9999
    1858        9322536        18.5750         0.9997         1.0003
    1859        9339610        18.5850         1.0005         1.0000
    1860        9341932        18.5950         0.9997         0.9999
    1861        9350756        18.6050         0.9995         0.9995
    1862        9362070        18.6150         0.9997         0.9997
    1863        9375424        18.6250         1.0000         1.0001
    1864        9389314        18.6350         1.0004         1.0000
    1865        9389164        18.6450         0.9993         0.9999
    1866        9405156        18.6550         1.0000         0.9996
    1867        9410762        18.6650         0.9995         0.9997
    1868        9423504        18.6750         0.9998         0.9998
    1869        9437590        18.6850         1.0002         0.9999
    1870        9443704        18.6950         0.9998         1.0001
    1871        9460040        18.7050         1.0004         1.0002
    1872        9466540        18.7150         1.0000         0.9999
    1873        9470044        18.7250         0.9993         0.9997
    1874        9489208        18.7350         1.0003         1.0000
    1875        9498954        18.7450         1.0003         1.0002
    1876        9506362        18.7550         1.0000         1.0003
    1877        9521890        18.7650         1.0005         1.0002
    1878        9523540        18.7750         0.9996         0.9998
    1879        9532098        18.7850         0.9995         0.9996
    1880        9547382        18.7950         1.0000         1.0000
    1881        9559452        18.8050         1.0002         1.0000
    1882        9562972        18.8150         0.9995         0.9999
    1883        9578180        18.8250         1.0000         0.9998
    1884        9588172        18.8350         1.0000         1.0001
    1885        9599694        18.8450         1.0002         1.0002
    1886        9612970        18.8550         1.0005         1.0003
    1887        9620986        18.8650         1.0003         1.0005
    1888        9633034        18.8750         1.0005         0.9999
    1889        9630788        18.8850         0.9992         0.9999
    1890        9653524        18.8950         1.0005         0.9999
    1891        9657862        18.9050         0.9999         1.0000
    1892        9666150        18.9150         0.9997         1.0000
    1893        9684540        18.9250         1.0005         0.9999
    1894        9682968        18.9350         0.9993         0.9998
    1895        9698736        18.9450         0.9998         0.9997
    1896        9710168        18.9550         1.0000         0.9998
    1897        9716566        18.9650         0.9996         1.0000
    1898        9733930        18.9750         1.0003         0.9998
    1899        9735250        18.9850         0.9994         1.0000
    1900        9753346        18.9950         1.0002         0.9997
    1901        9756196        19.0050         0.9994         0.9998
    1902        9772172        19.0150         1.0000         1.0000
    1903        9790576        19.0250         1.0008         1.0008
    1904        9801318        19.0350         1.0009         1.0006
    1905        9800848        19.0450         0.9998         1.0003
    1906        9816944        19.0550         1.0004         1.0000
    1907        9820362        19.0650         0.9997         0.9998
    1908        9828554        19.0750         0.9995         0.9996
    1909        9843740        19.0850         1.0000         0.9997
    1910        9853822        19.0950         0.9999         1.0002
    1911        9871480        19.1050         1.0007         1.0003
    1912        9875686        19.1150         1.0001         1.0004
    1913        9887218        19.1250         1.0002         0.9998
    1914        9890478        19.1350         0.9995         1.0000
    1915        9913150        19.1450         1.0007         1.0001
    1916        9916960        19.1550         1.0001         1.0005
    1917        9931828        19.1650         1.0005         1.0002
    1918        9936204        19.1750         0.9999         1.0002
    1919        9949540        19.1850         1.0002         0.9999
    1920        9954820        19.1950         0.9997         0.9999
    1921        9967490        19.2050         0.9999         0.9997
    1922        9975800        19.2150         0.9997         0.9999
    1923        9990262        19.2250         1.0001         1.0000
    1924       10001218        19.2350         1.0002         1.0000
    1925       10007410        19.2450         0.9998         1.0000
    1926       10023552        19.2550         1.0003         1.0001
    1927       10031388        19.2650         1.0001         1.0000
    1928       10037032        19.2750         0.9996         1.0001
    1929       10056558        19.2850         1.0005         0.9996
    1930       10049876        19.2950         0.9988         0.9999
    1931       10080518        19.3050         1.0008         1.0000
    1932       10086480        19.3150         1.0004         1.0005
    1933       10095622        19.3250         1.0002         1.0006
    1934       10116686        19.3350         1.0013         1.0006
    1935       10112616        19.3450         0.9998         1.0004
    1936       10124676        19.3550         1.0000         0.9996
    1937       10126466        19.3650         0.9992         0.9995
    1938       10142936        19.3750         0.9997         0.9995
    1939       10157276        19.3850         1.0001         1.0005
    1940       10177728        19.3950         1.0011         1.0004
    1941       10171744        19.4050         0.9995         1.0002
    1942       10187224        19.4150         1.0000         0.9994
    1943       10189570        19.4250         0.9992         0.9997
    1944       10212504        19.4350         1.0004         1.0001
    1945       10225386        19.4450         1.0006         1.0005
    1946       10230026        19.4550         1.0001         1.0002
    1947       10239240        19.4650         0.9999         0.9997
    1948       10246592        19.4750         0.9996         1.0000
    1949       10266920        19.4850         1.0006         1.0001
    1950       10271018        19.4950         0.9999         1.0003
    1951       10283252        19.5050         1.0001         0.9997
    1952       10285604        19.5150         0.9993         0.9997
    1953       10303108        19.5250         1.0000         0.9999
    1954       10317328        19.5350         1.0003         1.0001
    1955       10319428        19.5450         0.9995         0.9999
    1956       10331922        19.5550         0.9997         0.9993
    1957       10334992        19.5650         0.9990         0.9996
    1958       10361006        19.5750         1.0005         0.9998
    1959       10363798        19.5850         0.9997         1.0002
    1960       10378774        19.5950         1.0001         0.9999
    1961       10387520        19.6050         1.0000         1.0001
    1962       10399428        19.6150         1.0001         1.0002
    1963       10412206        19.6250         1.0003         0.9999
    1964       10410042        19.6350         0.9991         0.9996
    1965       10429228        19.6450         0.9999         0.9996
    1966       10441248        19.6550         1.0000         1.0002
    1967       10455458        19.6650         1.0004         1.0001
    1968       10457202        19.6750         0.9995         0.9997
    1969       10467570        19.6850         0.9995         0.9998
    1970       10492326        19.6950         1.0008         1.0004
    1971       10495694        19.7050         1.0002         1.0002
    1972       10498244        19.7150         0.9994         0.9996
    1973       10514158        19.7250         0.9999         0.9999
    1974       10532038        19.7350         1.0006         1.0004
    1975       10537376        19.7450         1.0001         1.0000
    1976       10541964        19.7550         0.9995         0.9998
    1977       10561578        19.7650         1.0003         1.0001
    1978       10569314        19.7750         1.0001         0.9999
    1979       10571252        19.7850         0.9992         0.9996
    1980       10590594        19.7950         1.0000         0.9997
    1981       10600688        19.8050         1.0000         1.0002
    1982       10615650        19.8150         1.0004         1.0003
    1983       10627352        19.8250         1.0005         1.0004
    1984       10632498        19.8350         1.0000         1.0000
    1985       10638872        19.8450         0.9995         0.9995
    1986       10647870        19.8550         0.9994         0.9994
    1987       10662228        19.8650         0.9997         0.9998
    1988       10678566        19.8750         1.0002         1.0001
    1989       10689556        19.8850         1.0003         1.0004
    1990       10701874        19.8950         1.0004         1.0003
    1991       10706382        19.9050         0.9998         0.9997
    1992       10707534        19.9150         0.9989         0.9993
    1993       10727500        19.9250         0.9998         0.9995
    1994       10738634        19.9350         0.9998         0.9999
    1995       10747232        19.9450         0.9996         0.9995
    1996       10754984        19.9550         0.9993         0.9997
    1997       10778700        19.9650         1.0005         1.0003
    1998       10790150        19.9750         1.0006         1.0005
    1999       10792894        19.9850         0.9999         1.0002
    2000       10809278        19.9950         1.0004         1.0002
    2001       10816564        20.0050         1.0000         0.9999
    2002       10818668        20.0150         0.9992         0.9997
    2003       10841680        20.0250         1.0004         0.9999
    2004       10848436        20.0350         1.0000         1.0002
    2005       10861308        20.0450         1.0002         1.0002
    2006       10872590        20.0550         1.0002         0.9999
    2007       10871688        20.0650         0.9991         0.9996
    2008       10893276        20.0750         1.0001         0.9999
    2009       10909836        20.0850         1.0007         1.0005
    2010       10916598        20.0950         1.0003         1.0003
    2011       10924998        20.1050         1.0000         1.0002
    2012       10938982        20.1150         1.0003         1.0002
    2013       10946012        20.1250         1.0000         1.0000
    2014       10951814        20.1350         0.9995         0.9996
    2015       10965040        20.1450         0.9997         0.9997
    2016       10979708        20.1550         1.0001         1.0002
    2017       10995574        20.1650         1.0005         1.0004
    2018       11002870        20.1750         1.0002         1.0002
    2019       11008918        20.1850         0.9998         0.9998
    2020       11019700        20.1950         0.9997         0.9998
    2021       11034428        20.2050         1.0001         0.9999
    2022       11041180        20.2150         0.9997         0.9999
    2023       11056396        20.2250         1.0001         1.0000
    2024       11069510        20.2350         1.0003         1.0003
    2025       11078056        20.2450         1.0001         0.9999
    2026       11081012        20.2550         0.9994         0.9996
    2027       11097640        20.2650         0.9999         0.9999
    2028       11113446        20.2750         1.0003         1.0000
    2029       11112438        20.2850         0.9992         0.9995
    2030       11125252        20.2950         0.9994         0.9994
    2031       11144630        20.3050         1.0002         1.0003
    2032       11165934        20.3150         1.0011         1.0008
    2033       11170874        20.3250         1.0005         1.0006
    2034       11176722        20.3350         1.0001         1.0004
    2035       11195224        20.3450         1.0008         1.0002
    2036       11193204        20.3550         0.9996         1.0003
    2037       11214224        20.3650         1.0005         0.9998
    2038       11211518        20.3750         0.9993         0.9999
    2039       11233736        20.3850         1.0003         1.0000
    2040       11244168        20.3950         1.0002         0.9999
    2041       11240908        20.4050         0.9989         0.9997
    2042       11268004        20.4150         1.0004         0.9997
    2043       11273048        20.4250         0.9998         1.0001
    2044       11286118        20.4350         1.0000         0.9999
    2045       11296228        20.4450         0.9999         1.0001
    2046       11312872        20.4550         1.0004         1.0001
    2047       11316376        20.4650         0.9998         1.0000
    2048       11331030        20.4750         1.0001         1.0000
    2049       11343024        20.4850         1.0001         1.0001
    2050       11351334        20.4950         0.9999         1.0000
    2051       11363908        20.5050         1.0000         1.0000
    2052       11373444        20.5150         0.9999         1.0000
    2053       11383756        20.5250         0.9998         0.9995
    2054       11385478        20.5350         0.9990         0.9996
    2055       11411802        20.5450         1.0003         0.9997
    2056       11415866        20.5550         0.9997         1.0002
    2057       11435478        20.5650         1.0005         1.0001
    2058       11439902        20.5750         0.9999         1.0002
    2059       11454688        20.5850         1.0002         1.0000
    2060       11462670        20.5950         0.9999         1.0002
    2061       11479874        20.6050         1.0005         1.0002
    2062       11486540        20.6150         1.0001         1.0001
    2063       11495374        20.6250         0.9999         0.9999
    2064       11509924        20.6350         1.0002         1.0003
    2065       11526714        20.6450         1.0007         1.0002
    2066       11524116        20.6550         0.9995         1.0001
    2067       11544978        20.6650         1.0003         0.9999
    2068       11552464        20.6750         1.0000         1.0002
    2069       11565646        20.6850         1.0002         0.9999
    2070       11569048        20.6950         0.9995         0.9995
    2071       11576620        20.7050         0.9992         0.9993
    2072       11595288        20.7150         0.9998         0.9997
    2073       11610324        20.7250         1.0001         1.0001
    2074       11618310        20.7350         0.9999         0.9998
    2075       11625180        20.7450         0.9995         0.9996
    2076       11639704        20.7550         0.9998         0.9997
    2077       11651314        20.7650         0.9998         0.9998
    2078       11662900        20.7750         0.9998         1.0000
    2079       11680498        20.7850         1.0004         1.0001
    2080       11688476        20.7950         1.0001         1.0004
    2081       11704250        20.8050         1.0005         1.0000
    2082       11703118        20.8150         0.9994         0.9999
    2083       11721876        20.8250         1.0001         0.9998
    2084       11733220        20.8350         1.0001         1.0004
    2085       11753708        20.8450         1.0009         1.0005
    2086       11754196        20.8550         1.0000         1.0001
    2087       11759680        20.8650         0.9995         0.9996
    2088       11777234        20.8750         1.0000         1.0000
    2089       11793006        20.8850         1.0004         1.0002
    2090       11798776        20.8950         0.9999         0.9999
    2091       11806074        20.9050         0.9996         0.9999
    2092       11828984        20.9150         1.0006         1.0003
    2093       11838482        20.9250         1.0004         1.0004
    2094       11843424        20.9350         0.9999         1.0001
    2095       11858082        20.9450         1.0001         1.0001
    2096       11870488        20.9550         1.0002         1.0001
    2097       11876554        20.9650         0.9998         0.9999
    2098       11887562        20.9750         0.9998         0.9999
    2099       11902872        20.9850         1.0001         0.9998
    2100       11907138        20.9950         0.9995         0.9997
    2101       11923520        21.0050         0.9999         1.0001
    2102       11945602        21.0150         1.0008         1.0005
    2103       11948384        21.0250         1.0001         1.0003
    2104       11955818        21.0350         0.9998         0.9996
    2105       11962678        21.0450         0.9994         0.9999
    2106       11992442        21.0550         1.0009         1.0005
    2107       12001970        21.0650         1.0008         1.0008
    2108       12006388        21.0750         1.0002         1.0001
    2109       12012786        21.0850         0.9998         1.0002
    2110       12036360        21.0950         1.0008         1.0001
    2111       12030738        21.1050         0.9994         1.0000
    2112       12049328        21.1150         1.0000         0.9996
    2113       12060034        21.1250         0.9999         1.0003
    2114       12081842        21.1350         1.0008         1.0003
    2115       12079994        21.1450         0.9997         1.0001
    2116       12090712        21.1550         0.9996         0.9994
    2117       12096576        21.1650         0.9992         0.9994
    2118       12116686        21.1750         0.9999         0.9998
    2119       12133754        21.1850         1.0003         1.0002
    2120       12138876        21.1950         0.9998         1.0000
    2121       12149444        21.2050         0.9997         0.9998
    2122       12161464        21.2150         0.9998         0.9997
    2123       12169364        21.2250         0.9995         0.9997
    2124       12185450        21.2350         0.9999         0.9996
    2125       12191296        21.2450         0.9994         0.9995
    2126       12203558        21.2550         0.9995         0.9995
    2127       12219908        21.2650         0.9999         1.0000
    2128       12239020        21.2750         1.0005         1.0003
    2129       12246584        21.2850         1.0002         1.0002
    2130       12254168        21.2950         0.9999         1.0001
    2131       12274208        21.3050         1.0005         1.0002
    2132       12282362        21.3150         1.0003         1.0005
    2133       12299356        21.3250         1.0007         1.0006
    2134       12307612        21.3350         1.0005         1.0004
    2135       12312622        21.3450         0.9999         1.0000
    2136       12322624        21.3550         0.9998         0.9997
    2137       12332372        21.3650         0.9997         0.9998
    2138       12348050        21.3750         1.0000         0.9999
    2139       12359900        21.3850         1.0000         0.9998
    2140       12365940        21.3950         0.9996         1.0000
    2141       12388400        21.4050         1.0004         1.0000
    2142       12392914        21.4150         0.9999         1.0000
    2143       12402136        21.4250         0.9997         0.9997
    2144       12418612        21.4350         1.0001         1.0002
    2145       12437770        21.4450         1.0007         1.0005
    2146       12444122        21.4550         1.0003         1.0002
    2147       12447144        21.4650         0.9996         0.9998
    2148       12463038        21.4750         0.9999         0.9998
    2149       12476882        21.4850         1.0001         1.0001
    2150       12488434        21.4950         1.0001         1.0002
    2151       12500162        21.5050         1.0001         0.9999
    2152       12503840        21.5150         0.9995         0.9998
    2153       12521840        21.5250         1.0000         0.9997
    2154       12530744        21.5350         0.9998         0.9999
    2155       12546778        21.5450         1.0001         1.0002
    2156       12564866        21.5550         1.0006         1.0001
    2157       12561044        21.5650         0.9994         1.0000
    2158       12583188        21.5750         1.0002         1.0000
    2159       12596290        21.5850         1.0003         1.0003
    2160       12603184        21.5950         1.0000         1.0000
    2161       12613214        21.6050         0.9998         0.9999
    2162       12627112        21.6150         1.0000         1.0000
    2163       12641566        21.6250         1.0002         1.0003
    2164       12654224        21.6350         1.0003         1.0000
    2165       12653630        21.6450         0.9993         0.9998
    2166       12676270        21.6550         1.0002         0.9998
    2167       12682540        21.6650         0.9998         1.0000
    2168       12697510        21.6750         1.0000         1.0000
    2169       12711640        21.6850         1.0002         0.9999
    2170       12712988        21.6950         0.9994         0.9998
    2171       12732334        21.7050         1.0000         0.9997
    2172       12741788        21.7150         0.9998         1.0001
    2173       12759180        21.7250         1.0003         1.0000
    2174       12762980        21.7350         0.9996         0.9998
    2175       12775558        21.7450         0.9997         0.9996
    2176       12788292        21.7550         0.9998         0.9999
    2177       12806512        21.7650         1.0003         1.0000
    2178       12816044        21.7750         1.0001         1.0005
    2179       12837246        21.7850         1.0008         1.0004
    2180       12834750        21.7950         0.9997         0.9998
    2181       12838322        21.8050         0.9991         0.9995
    2182       12866446        21.8150         1.0004         1.0000
    2183       12876284        21.8250         1.0002         1.0003
    2184       12885154        21.8350         1.0000         1.0000
    2185       12897468        21.8450         1.0000         0.9999
    2186       12907316        21.8550         0.9999         0.9999
    2187       12919302        21.8650         0.9999         1.0000
    2188       12934892        21.8750         1.0002         1.0001
    2189       12943934        21.8850         1.0000         1.0000
    2190       12953266        21.8950         0.9998         0.9996
    2191       12960004        21.9050         0.9994         0.9996
    2192       12978982        21.9150         0.9999         0.9999
    2193       12995486        21.9250         1.0003         1.0000
    2194       13001024        21.9350         0.9998         1.0003
    2195       13023514        21.9450         1.0006         1.0000
    2196       13019324        21.9550         0.9994         0.9998
    2197       13032624        21.9650         0.9995         0.9995
    2198       13050692        21.9750         1.0000         0.9999
    2199       13064672        21.9850         1.0001         1.0002
    2200       13078472        21.9950         1.0003         1.0001
    2201       13083978        22.0050         0.9998         0.9999
    2202       13099862        22.0150         1.0001         1.0002
    2203       13119912        22.0250         1.0007         1.0004
    2204       13121854        22.0350         0.9999         1.0002
    2205       13135370        22.0450         1.0001         0.9999
    2206       13144204        22.0550         0.9998         1.0000
    2207       13157636        22.0650         0.9999         0.9998
    2208       13167268        22.0750         0.9998         0.9999
    2209       13181480        22.0850         0.9999         0.9998
    2210       13188150        22.0950         0.9995         0.9997
    2211       13203054        22.1050         0.9998         0.9997
    2212       13212820        22.1150         0.9996         0.9994
    2213       13217862        22.1250         0.9991         0.9996
    2214       13245990        22.1350         1.0003         0.9998
    2215       13247430        22.1450         0.9995         0.9996
    2216       13251546        22.1550         0.9989         0.9993
    2217       13276996        22.1650         0.9999         0.9993
    2218       13280140        22.1750         0.9993         0.9999
    2219       13310464        22.1850         1.0007         1.0001
    2220       13315080        22.1950         1.0001         1.0004
    2221       13327130        22.2050         1.0001         1.0000
    2222       13339168        22.2150         1.0001         1.0001
    2223       13351616        22.2250         1.0001         1.0002
    2224       13366252        22.2350         1.0003         1.0001
    2225       13369680        22.2450         0.9997         0.9998
    2226       13381314        22.2550         0.9997         0.9998
    2227       13399114        22.2650         1.0001         0.9998
    2228       13405154        22.2750         0.9996         1.0001
    2229       13430854        22.2850         1.0007         1.0001
    2230       13432394        22.2950         0.9999         1.0003
    2231       13449520        22.3050         1.0003         1.0000
    2232       13457322        22.3150         0.9999         1.0003
    2233       13476808        22.3250         1.0005         1.0000
    2234       13476066        22.3350         0.9995         0.9999
    2235       13496802        22.3450         1.0002         1.0002
    2236       13518594        22.3550         1.0009         1.0003
    2237       13510476        22.3650         0.9994         1.0001
    2238       13532648        22.3750         1.0001         0.9997
    2239       13536086        22.3850         0.9995         0.9995
    2240       13542960        22.3950         0.9991         0.9996
    2241       13573922        22.4050         1.0005         0.9999
    2242       13575114        22.4150         0.9997         1.0001
    2243       13587988        22.4250         0.9998         0.9996
    2244       13599568        22.4350         0.9997         0.9999
    2245       13618356        22.4450         1.0002         0.9998
    2246       13621378        22.4550         0.9995         1.0000
    2247       13644390        22.4650         1.0003         1.0001
    2248       13654348        22.4750         1.0002         0.9999
    2249       13653768        22.4850         0.9993         1.0000
    2250       13688500        22.4950         1.0009         1.0002
    2251       13690358        22.5050         1.0001         1.0006
    2252       13705408        22.5150         1.0004         1.0001
    2253       13711620        22.5250         0.9999         1.0001
    2254       13721480        22.5350         0.9998         0.9996
    2255       13726278        22.5450         0.9992         0.9994
    2256       13744678        22.5550         0.9997         0.9998
    2257       13770858        22.5650         1.0007         1.0003
    2258       13774394        22.5750         1.0001         1.0004
    2259       13788688        22.5850         1.0002         1.0000
    2260       13795842        22.5950         0.9998         0.9998
    2261       13803778        22.6050         0.9995         0.9998
    2262       13826676        22.6150         1.0003         0.9999
    2263       13830646        22.6250         0.9997         0.9998
    2264       13840122        22.6350         0.9995         0.9996
    2265       13859304        22.6450         1.0000         0.9999
    2266       13874494        22.6550         1.0002         1.0002
    2267       13888580        22.6650         1.0004         1.0005
    2268       13904914        22.6750         1.0006         1.0003
    2269       13902288        22.6850         0.9996         0.9999
    2270       13918166        22.6950         0.9998         0.9999
    2271       13939354        22.7050         1.0005         1.0002
    2272       13945922        22.7150         1.0001         1.0004
    2273       13963118        22.7250         1.0004         1.0002
    2274       13968890        22.7350         1.0000         1.0001
    2275       13982444        22.7450         1.0000         1.0001
    2276       13999648        22.7550         1.0004         1.0001
    2277       14003776        22.7650         0.9998         1.0001
    2278       14021358        22.7750         1.0002         1.0002
    2279       14037218        22.7850         1.0004         1.0001
    2280       14036040        22.7950         0.9995         0.9998
    2281       14053720        22.8050         0.9999         0.9997
    2282       14066812        22.8150         0.9999         1.0000
    2283       14083282        22.8250         1.0002         1.0001
    2284       14096218        22.8350         1.0003         1.0004
    2285       14112514        22.8450         1.0005         1.0002
    2286       14115606        22.8550         0.9999         1.0003
    2287       14138102        22.8650         1.0006         1.0002
    2288       14140286        22.8750         0.9999         1.0000
    2289       14147558        22.8850         0.9995         0.9998
    2290       14168324        22.8950         1.0001         0.9998
    2291       14171546        22.9050         0.9995         0.9996
    2292       14180524        22.9150         0.9992         0.9993
    2293       14198870        22.9250         0.9996         0.9997
    2294       14216558        22.9350         1.0000         0.9997
    2295       14217596        22.9450         0.9992         0.9997
    2296       14244624        22.9550         1.0002         1.0000
    2297       14258920        22.9650         1.0004         1.0002
    2298       14259726        22.9750         0.9996         0.9999
    2299       14277862        22.9850         1.0000         0.9998
    2300       14289484        22.9950         0.9999         1.0000
    2301       14303614        23.0050         1.0000         1.0000
    2302       14315838        23.0150         1.0000         0.9998
    2303       14320852        23.0250         0.9995         0.9997
    2304       14340006        23.0350         1.0000         0.9998
    2305       14353764        23.0450         1.0000         1.0001
    2306       14366744        23.0550         1.0001         1.0001
    2307       14381562        23.0650         1.0002         1.0002
    2308       14394418        23.0750         1.0003         1.0003
    2309       14405136        23.0850         1.0002         1.0001
    2310       14413924        23.0950         0.9999         0.9999
    2311       14426410        23.1050         0.9999         0.9999
    2312       14439084        23.1150         0.9999         0.9999
    2313       14450556        23.1250         0.9998         0.9998
    2314       14461356        23.1350         0.9997         0.9998
    2315       14478884        23.1450         1.0001         1.0000
    2316       14491134        23.1550         1.0000         1.0001
    2317       14503072        23.1650         1.0000         1.0001
    2318       14517968        23.1750         1.0002         1.0002
    2319       14530680        23.1850         1.0002         1.0001
    2320       14538364        23.1950         0.9999         1.0001
    2321       14560158        23.2050         1.0005         1.0002
    2322       14565410        23.2150         1.0000         1.0001
    2323       14578086        23.2250         1.0000         1.0000
    2324       14595750        23.2350         1.0003         1.0003
    2325       14607796        23.2450         1.0003         1.0001
    2326       14609328        23.2550         0.9996         1.0000
    2327       14633920        23.2650         1.0004         1.0000
    2328       14643420        23.2750         1.0002         1.0003
    2329       14656486        23.2850         1.0002         1.0001
    2330       14665728        23.2950         1.0000         1.0002
    2331       14683610        23.3050         1.0003         1.0001
    2332       14688536        23.3150         0.9998         1.0000
    2333       14701920        23.3250         0.9999         0.9998
    2334       14713284        23.3350         0.9998         0.9996
    2335       14718712        23.3450         0.9993         0.9998
    2336       14752010        23.3550         1.0007         1.0001
    2337       14751746        23.3650         0.9998         1.0002
    2338       14764320        23.3750         0.9998         0.9997
