
     ######################################################################
   ##########################################################################
  ###                                                                      ###
 ###            Tinker  ---  Software Tools for Molecular Design            ###
 ##                                                                          ##
 ##                      Version 8.10.2   February 2022                      ##
 ##                                                                          ##
 ##               Copyright (c)  Jay William Ponder  1990-2022               ##
 ###                           All Rights Reserved                          ###
  ###                                                                      ###
   ##########################################################################
     ######################################################################


 Number of Coordinate Frames :           401
 Number of Distance Bins :              2338

 Reading the Coordinates Archive File :

    Processing Coordinate Frame          100
    Processing Coordinate Frame          200
    Processing Coordinate Frame          300
    Processing Coordinate Frame          400
    Processing Coordinate Frame          401

 Pairwise Radial Distribution Function :

       First Name or Type :  76         Second Name or Type :  77    

     Bin         Counts       Distance       Raw g(r)    Smooth g(r)

       1              0         0.0050         0.0000         0.0000
       2              0         0.0150         0.0000         0.0000
       3              0         0.0250         0.0000         0.0000
       4              0         0.0350         0.0000         0.0000
       5              0         0.0450         0.0000         0.0000
       6              0         0.0550         0.0000         0.0000
       7              0         0.0650         0.0000         0.0000
       8              0         0.0750         0.0000         0.0000
       9              0         0.0850         0.0000         0.0000
      10              0         0.0950         0.0000         0.0000
      11              0         0.1050         0.0000         0.0000
      12              0         0.1150         0.0000         0.0000
      13              0         0.1250         0.0000         0.0000
      14              0         0.1350         0.0000         0.0000
      15              0         0.1450         0.0000         0.0000
      16              0         0.1550         0.0000         0.0000
      17              0         0.1650         0.0000         0.0000
      18              0         0.1750         0.0000         0.0000
      19              0         0.1850         0.0000         0.0000
      20              0         0.1950         0.0000         0.0000
      21              0         0.2050         0.0000         0.0000
      22              0         0.2150         0.0000         0.0000
      23              0         0.2250         0.0000         0.0000
      24              0         0.2350         0.0000         0.0000
      25              0         0.2450         0.0000         0.0000
      26              0         0.2550         0.0000         0.0000
      27              0         0.2650         0.0000         0.0000
      28              0         0.2750         0.0000         0.0000
      29              0         0.2850         0.0000         0.0000
      30              0         0.2950         0.0000         0.0000
      31              0         0.3050         0.0000         0.0000
      32              0         0.3150         0.0000         0.0000
      33              0         0.3250         0.0000         0.0000
      34              0         0.3350         0.0000         0.0000
      35              0         0.3450         0.0000         0.0000
      36              0         0.3550         0.0000         0.0000
      37              0         0.3650         0.0000         0.0000
      38              0         0.3750         0.0000         0.0000
      39              0         0.3850         0.0000         0.0000
      40              0         0.3950         0.0000         0.0000
      41              0         0.4050         0.0000         0.0000
      42              0         0.4150         0.0000         0.0000
      43              0         0.4250         0.0000         0.0000
      44              0         0.4350         0.0000         0.0000
      45              0         0.4450         0.0000         0.0000
      46              0         0.4550         0.0000         0.0000
      47              0         0.4650         0.0000         0.0000
      48              0         0.4750         0.0000         0.0000
      49              0         0.4850         0.0000         0.0000
      50              0         0.4950         0.0000         0.0000
      51              0         0.5050         0.0000         0.0000
      52              0         0.5150         0.0000         0.0000
      53              0         0.5250         0.0000         0.0000
      54              0         0.5350         0.0000         0.0000
      55              0         0.5450         0.0000         0.0000
      56              0         0.5550         0.0000         0.0000
      57              0         0.5650         0.0000         0.0000
      58              0         0.5750         0.0000         0.0000
      59              0         0.5850         0.0000         0.0000
      60              0         0.5950         0.0000         0.0000
      61              0         0.6050         0.0000         0.0000
      62              0         0.6150         0.0000         0.0000
      63              0         0.6250         0.0000         0.0000
      64              0         0.6350         0.0000         0.0000
      65              0         0.6450         0.0000         0.0000
      66              0         0.6550         0.0000         0.0000
      67              0         0.6650         0.0000         0.0000
      68              0         0.6750         0.0000         0.0000
      69              0         0.6850         0.0000         0.0000
      70              0         0.6950         0.0000         0.0000
      71              0         0.7050         0.0000         0.0000
      72              0         0.7150         0.0000         0.0000
      73              0         0.7250         0.0000         0.0000
      74              0         0.7350         0.0000         0.0000
      75              0         0.7450         0.0000         0.0000
      76              0         0.7550         0.0000         0.0000
      77              0         0.7650         0.0000         0.0000
      78              0         0.7750         0.0000         0.0000
      79              0         0.7850         0.0000         0.0000
      80              0         0.7950         0.0000         0.0000
      81              0         0.8050         0.0000         0.0000
      82              0         0.8150         0.0000         0.0000
      83              0         0.8250         0.0000         0.0000
      84              0         0.8350         0.0000         0.0000
      85              0         0.8450         0.0000         0.0000
      86              0         0.8550         0.0000         0.0000
      87              0         0.8650         0.0000         0.0000
      88              0         0.8750         0.0000         0.0000
      89              0         0.8850         0.0000         0.0000
      90              0         0.8950         0.0000         0.0000
      91              0         0.9050         0.0000         0.0000
      92              0         0.9150         0.0000         0.0000
      93              0         0.9250         0.0000         0.0000
      94              0         0.9350         0.0000         0.0000
      95              0         0.9450         0.0000         0.0000
      96              0         0.9550         0.0000         0.0000
      97              0         0.9650         0.0000         0.0000
      98              0         0.9750         0.0000         0.0000
      99              0         0.9850         0.0000         0.0000
     100              0         0.9950         0.0000         0.0000
     101              0         1.0050         0.0000         0.0000
     102              0         1.0150         0.0000         0.0000
     103              0         1.0250         0.0000         0.0000
     104              0         1.0350         0.0000         0.0000
     105              0         1.0450         0.0000         0.0000
     106              0         1.0550         0.0000         0.0000
     107              0         1.0650         0.0000         0.0000
     108              0         1.0750         0.0000         0.0000
     109              0         1.0850         0.0000         0.0000
     110              0         1.0950         0.0000         0.0000
     111              0         1.1050         0.0000         0.0000
     112              0         1.1150         0.0000         0.0000
     113              0         1.1250         0.0000         0.0000
     114              0         1.1350         0.0000         0.0000
     115              0         1.1450         0.0000         0.0000
     116              0         1.1550         0.0000         0.0000
     117              0         1.1650         0.0000         0.0000
     118              0         1.1750         0.0000         0.0000
     119              0         1.1850         0.0000         0.0000
     120              0         1.1950         0.0000         0.0000
     121              0         1.2050         0.0000         0.0000
     122              0         1.2150         0.0000         0.0000
     123              0         1.2250         0.0000         0.0000
     124              0         1.2350         0.0000         0.0000
     125              0         1.2450         0.0000         0.0000
     126              0         1.2550         0.0000         0.0000
     127              0         1.2650         0.0000         0.0000
     128              0         1.2750         0.0000         0.0000
     129              0         1.2850         0.0000         0.0000
     130              0         1.2950         0.0000         0.0000
     131              0         1.3050         0.0000         0.0000
     132              0         1.3150         0.0000         0.0000
     133              0         1.3250         0.0000         0.0000
     134              1         1.3350         0.0000         0.0001
     135              3         1.3450         0.0001         0.0001
     136              2         1.3550         0.0001         0.0001
     137              7         1.3650         0.0003         0.0003
     138             18         1.3750         0.0007         0.0006
     139             27         1.3850         0.0010         0.0011
     140             52         1.3950         0.0020         0.0019
     141             90         1.4050         0.0034         0.0036
     142            160         1.4150         0.0059         0.0053
     143            204         1.4250         0.0074         0.0082
     144            354         1.4350         0.0127         0.0118
     145            485         1.4450         0.0172         0.0183
     146            786         1.4550         0.0275         0.0267
     147           1089         1.4650         0.0375         0.0375
     148           1489         1.4750         0.0506         0.0514
     149           2110         1.4850         0.0708         0.0698
     150           2812         1.4950         0.0931         0.0935
     151           3793         1.5050         0.1239         0.1256
     152           5127         1.5150         0.1653         0.1617
     153           6268         1.5250         0.1994         0.2025
     154           7965         1.5350         0.2502         0.2487
     155           9840         1.5450         0.3051         0.3052
     156          12063         1.5550         0.3692         0.3724
     157          14754         1.5650         0.4458         0.4393
     158          16781         1.5750         0.5006         0.5044
     159          19521         1.5850         0.5750         0.5769
     160          22912         1.5950         0.6665         0.6647
     161          26119         1.6050         0.7503         0.7474
     162          29008         1.6150         0.8230         0.8286
     163          32638         1.6250         0.9146         0.9097
     164          35769         1.6350         0.9902         0.9929
     165          39190         1.6450         1.0717         1.0729
     166          42565         1.6550         1.1500         1.1442
     167          45037         1.6650         1.2022         1.2091
     168          48260         1.6750         1.2729         1.2696
     169          50876         1.6850         1.3260         1.3247
     170          52977         1.6950         1.3645         1.3675
     171          55287         1.7050         1.4074         1.4051
     172          57211         1.7150         1.4394         1.4429
     173          59180         1.7250         1.4717         1.4664
     174          60009         1.7350         1.4752         1.4790
     175          61040         1.7450         1.4834         1.4829
     176          61818         1.7550         1.4852         1.4839
     177          62124         1.7650         1.4757         1.4777
     178          62380         1.7750         1.4652         1.4621
     179          62015         1.7850         1.4403         1.4448
     180          62007         1.7950         1.4241         1.4188
     181          61060         1.8050         1.3869         1.3912
     182          60589         1.8150         1.3611         1.3591
     183          59788         1.8250         1.3284         1.3283
     184          58861         1.8350         1.2936         1.2959
     185          58049         1.8450         1.2619         1.2571
     186          56341         1.8550         1.2116         1.2166
     187          55333         1.8650         1.1772         1.1751
     188          53927         1.8750         1.1351         1.1333
     189          52181         1.8850         1.0867         1.0912
     190          51200         1.8950         1.0551         1.0513
     191          49587         1.9050         1.0111         1.0127
     192          48059         1.9150         0.9698         0.9694
     193          46465         1.9250         0.9279         0.9278
     194          44884         1.9350         0.8871         0.8883
     195          43456         1.9450         0.8501         0.8471
     196          41595         1.9550         0.8054         0.8095
     197          40504         1.9650         0.7763         0.7726
     198          38903         1.9750         0.7381         0.7405
     199          37740         1.9850         0.7088         0.7077
     200          36437         1.9950         0.6775         0.6773
     201          35103         2.0050         0.6462         0.6470
     202          33994         2.0150         0.6196         0.6189
     203          32819         2.0250         0.5923         0.5928
     204          31693         2.0350         0.5663         0.5650
     205          30380         2.0450         0.5376         0.5398
     206          29504         2.0550         0.5170         0.5145
     207          28239         2.0650         0.4901         0.4926
     208          27432         2.0750         0.4715         0.4689
     209          26254         2.0850         0.4469         0.4494
     210          25651         2.0950         0.4325         0.4312
     211          24891         2.1050         0.4157         0.4162
     212          24135         2.1150         0.3993         0.3981
     213          23162         2.1250         0.3796         0.3813
     214          22600         2.1350         0.3669         0.3658
     215          21859         2.1450         0.3516         0.3516
     216          21163         2.1550         0.3372         0.3380
     217          20702         2.1650         0.3268         0.3257
     218          20129         2.1750         0.3149         0.3168
     219          19947         2.1850         0.3092         0.3067
     220          19187         2.1950         0.2947         0.2961
     221          18767         2.2050         0.2856         0.2863
     222          18531         2.2150         0.2795         0.2778
     223          17836         2.2250         0.2666         0.2675
     224          17327         2.2350         0.2567         0.2566
     225          16997         2.2450         0.2496         0.2500
     226          16890         2.2550         0.2458         0.2453
     227          16683         2.2650         0.2406         0.2407
     228          16421         2.2750         0.2348         0.2343
     229          16080         2.2850         0.2279         0.2288
     230          16021         2.2950         0.2251         0.2243
     231          15840         2.3050         0.2206         0.2212
     232          15809         2.3150         0.2183         0.2185
     233          15755         2.3250         0.2157         0.2138
     234          15303         2.3350         0.2077         0.2109
     235          15709         2.3450         0.2114         0.2085
     236          15516         2.3550         0.2070         0.2093
     237          15745         2.3650         0.2083         0.2060
     238          15391         2.3750         0.2019         0.2032
     239          15512         2.3850         0.2018         0.2029
     240          16024         2.3950         0.2067         0.2042
     241          15823         2.4050         0.2024         0.2041
     242          16077         2.4150         0.2040         0.2039
     243          16410         2.4250         0.2065         0.2059
     244          16532         2.4350         0.2063         0.2066
     245          16683         2.4450         0.2065         0.2064
     246          16887         2.4550         0.2073         0.2078
     247          17327         2.4650         0.2110         0.2109
     248          17749         2.4750         0.2144         0.2140
     249          18024         2.4850         0.2160         0.2164
     250          18463         2.4950         0.2195         0.2192
     251          18935         2.5050         0.2233         0.2235
     252          19562         2.5150         0.2289         0.2288
     253          20297         2.5250         0.2356         0.2359
     254          21116         2.5350         0.2432         0.2421
     255          21625         2.5450         0.2471         0.2482
     256          22476         2.5550         0.2548         0.2539
     257          23149         2.5650         0.2604         0.2608
     258          24048         2.5750         0.2684         0.2688
     259          25179         2.5850         0.2788         0.2781
     260          26086         2.5950         0.2867         0.2870
     261          27120         2.6050         0.2957         0.2957
     262          28249         2.6150         0.3057         0.3059
     263          29511         2.6250         0.3169         0.3167
     264          30739         2.6350         0.3276         0.3277
     265          32032         2.6450         0.3388         0.3389
     266          33434         2.6550         0.3510         0.3506
     267          34863         2.6650         0.3633         0.3644
     268          36659         2.6750         0.3791         0.3771
     269          37919         2.6850         0.3892         0.3915
     270          40062         2.6950         0.4082         0.4070
     271          41937         2.7050         0.4241         0.4245
     272          43774         2.7150         0.4395         0.4386
     273          45384         2.7250         0.4523         0.4533
     274          47576         2.7350         0.4707         0.4706
     275          49950         2.7450         0.4906         0.4898
     276          52133         2.7550         0.5083         0.5095
     277          54693         2.7650         0.5294         0.5275
     278          56724         2.7750         0.5451         0.5473
     279          59660         2.7850         0.5692         0.5677
     280          62331         2.7950         0.5904         0.5916
     281          65370         2.8050         0.6148         0.6134
     282          68003         2.8150         0.6351         0.6368
     283          71275         2.8250         0.6609         0.6590
     284          74071         2.8350         0.6820         0.6840
     285          77706         2.8450         0.7104         0.7092
     286          80999         2.8550         0.7354         0.7354
     287          84330         2.8650         0.7603         0.7609
     288          88052         2.8750         0.7883         0.7881
     289          91653         2.8850         0.8149         0.8143
     290          94959         2.8950         0.8384         0.8388
     291          98607         2.9050         0.8647         0.8654
     292         102824         2.9150         0.8955         0.8950
     293         106910         2.9250         0.9247         0.9240
     294         110766         2.9350         0.9515         0.9531
     295         115270         2.9450         0.9835         0.9824
     296         119131         2.9550         1.0096         1.0087
     297         122606         2.9650         1.0320         1.0339
     298         127174         2.9750         1.0633         1.0626
     299         131704         2.9850         1.0938         1.0937
     300         135986         2.9950         1.1219         1.1213
     301         140036         3.0050         1.1476         1.1491
     302         144669         3.0150         1.1777         1.1763
     303         148580         3.0250         1.2016         1.2017
     304         152467         3.0350         1.2249         1.2256
     305         156840         3.0450         1.2518         1.2516
     306         161113         3.0550         1.2775         1.2768
     307         164902         3.0650         1.2990         1.2994
     308         168822         3.0750         1.3212         1.3214
     309         172832         3.0850         1.3439         1.3437
     310         176674         3.0950         1.3649         1.3655
     311         180325         3.1050         1.3841         1.3821
     312         182789         3.1150         1.3940         1.3961
     313         186104         3.1250         1.4102         1.4092
     314         189165         3.1350         1.4243         1.4252
     315         192480         3.1450         1.4401         1.4392
     316         195148         3.1550         1.4508         1.4509
     317         197633         3.1650         1.4600         1.4604
     318         200292         3.1750         1.4703         1.4701
     319         202813         3.1850         1.4795         1.4799
     320         205233         3.1950         1.4878         1.4863
     321         206949         3.2050         1.4909         1.4943
     322         209840         3.2150         1.5023         1.4982
     323         210193         3.2250         1.4955         1.4965
     324         210938         3.2350         1.4916         1.4945
     325         213540         3.2450         1.5007         1.4976
     326         214660         3.2550         1.4993         1.5012
     327         216087         3.2650         1.5000         1.4977
     328         216411         3.2750         1.4931         1.4962
     329         218109         3.2850         1.4957         1.4933
     330         218523         3.2950         1.4894         1.4906
     331         219036         3.3050         1.4839         1.4824
     332         219055         3.3150         1.4751         1.4783
     333         220657         3.3250         1.4770         1.4735
     334         220398         3.3350         1.4664         1.4685
     335         220846         3.3450         1.4606         1.4595
     336         220845         3.3550         1.4519         1.4529
     337         221205         3.3650         1.4456         1.4447
     338         220996         3.3750         1.4357         1.4359
     339         221056         3.3850         1.4277         1.4291
     340         221929         3.3950         1.4249         1.4233
     341         221485         3.4050         1.4137         1.4127
     342         220420         3.4150         1.3986         1.4021
     343         221311         3.4250         1.3961         1.3925
     344         220438         3.4350         1.3825         1.3853
     345         220812         3.4450         1.3768         1.3745
     346         220207         3.4550         1.3651         1.3672
     347         220822         3.4650         1.3610         1.3610
     348         221018         3.4750         1.3544         1.3516
     349         219210         3.4850         1.3357         1.3380
     350         219146         3.4950         1.3276         1.3289
     351         220101         3.5050         1.3258         1.3233
     352         218847         3.5150         1.3108         1.3101
     353         216982         3.5250         1.2922         1.2950
     354         217401         3.5350         1.2874         1.2860
     355         217514         3.5450         1.2808         1.2814
     356         217561         3.5550         1.2739         1.2726
     357         216612         3.5650         1.2613         1.2626
     358         216292         3.5750         1.2524         1.2514
     359         215518         3.5850         1.2409         1.2414
     360         215133         3.5950         1.2318         1.2321
     361         214953         3.6050         1.2240         1.2233
     362         214235         3.6150         1.2131         1.2138
     363         213679         3.6250         1.2033         1.2023
     364         212643         3.6350         1.1909         1.1923
     365         212579         3.6450         1.1840         1.1832
     366         211954         3.6550         1.1741         1.1736
     367         211021         3.6650         1.1626         1.1641
     368         211036         3.6750         1.1563         1.1541
     369         209930         3.6850         1.1440         1.1465
     370         210446         3.6950         1.1406         1.1395
     371         209966         3.7050         1.1319         1.1303
     372         208323         3.7150         1.1170         1.1202
     373         208934         3.7250         1.1143         1.1117
     374         208274         3.7350         1.1048         1.1066
     375         208384         3.7450         1.0995         1.0977
     376         207470         3.7550         1.0889         1.0910
     377         207740         3.7650         1.0845         1.0824
     378         206750         3.7750         1.0736         1.0752
     379         206789         3.7850         1.0682         1.0674
     380         206551         3.7950         1.0613         1.0613
     381         206438         3.8050         1.0552         1.0558
     382         206935         3.8150         1.0522         1.0514
     383         206982         3.8250         1.0469         1.0475
     384         207317         3.8350         1.0431         1.0428
     385         207423         3.8450         1.0383         1.0389
     386         207516         3.8550         1.0333         1.0311
     387         206356         3.8650         1.0222         1.0262
     388         208008         3.8750         1.0251         1.0207
     389         207199         3.8850         1.0159         1.0200
     390         209051         3.8950         1.0197         1.0165
     391         208949         3.9050         1.0140         1.0161
     392         209989         3.9150         1.0138         1.0127
     393         210196         3.9250         1.0097         1.0100
     394         210449         3.9350         1.0058         1.0058
     395         210785         3.9450         1.0023         1.0020
     396         211232         3.9550         0.9993         0.9996
     397         212386         3.9650         0.9997         1.0004
     398         214051         3.9750         1.0025         1.0014
     399         214397         3.9850         0.9991         0.9991
     400         214366         3.9950         0.9939         0.9944
     401         214988         4.0050         0.9919         0.9923
     402         216141         4.0150         0.9922         0.9910
     403         216455         4.0250         0.9887         0.9904
     404         217724         4.0350         0.9896         0.9872
     405         217523         4.0450         0.9838         0.9870
     406         219612         4.0550         0.9884         0.9852
     407         219475         4.0650         0.9829         0.9848
     408         220812         4.0750         0.9840         0.9842
     409         222329         4.0850         0.9859         0.9842
     410         222229         4.0950         0.9807         0.9819
     411         223246         4.1050         0.9804         0.9808
     412         224881         4.1150         0.9828         0.9815
     413         225404         4.1250         0.9803         0.9813
     414         226438         4.1350         0.9800         0.9793
     415         226962         4.1450         0.9776         0.9776
     416         227800         4.1550         0.9764         0.9777
     417         229688         4.1650         0.9798         0.9777
     418         229813         4.1750         0.9757         0.9772
     419         231264         4.1850         0.9771         0.9771
     420         232937         4.1950         0.9795         0.9792
     421         233878         4.2050         0.9788         0.9781
     422         234053         4.2150         0.9749         0.9762
     423         235382         4.2250         0.9758         0.9753
     424         236184         4.2350         0.9745         0.9734
     425         236024         4.2450         0.9693         0.9711
     426         237615         4.2550         0.9712         0.9701
     427         238414         4.2650         0.9699         0.9698
     428         239020         4.2750         0.9678         0.9681
     429         240259         4.2850         0.9683         0.9691
     430         242300         4.2950         0.9720         0.9712
     431         243135         4.3050         0.9708         0.9697
     432         243007         4.3150         0.9658         0.9685
     433         245511         4.3250         0.9713         0.9693
     434         246482         4.3350         0.9706         0.9713
     435         247396         4.3450         0.9697         0.9692
     436         247766         4.3550         0.9667         0.9675
     437         248801         4.3650         0.9663         0.9653
     438         249340         4.3750         0.9640         0.9655
     439         251338         4.3850         0.9673         0.9659
     440         252074         4.3950         0.9657         0.9665
     441         252953         4.4050         0.9647         0.9638
     442         253134         4.4150         0.9610         0.9621
     443         254643         4.4250         0.9624         0.9623
     444         256146         4.4350         0.9637         0.9629
     445         256568         4.4450         0.9609         0.9614
     446         257437         4.4550         0.9599         0.9604
     447         258934         4.4650         0.9611         0.9604
     448         259567         4.4750         0.9592         0.9592
     449         260134         4.4850         0.9570         0.9572
     450         261317         4.4950         0.9571         0.9575
     451         263021         4.5050         0.9590         0.9580
     452         263902         4.5150         0.9580         0.9600
     453         265969         4.5250         0.9612         0.9579
     454         264852         4.5350         0.9530         0.9565
     455         266901         4.5450         0.9561         0.9538
     456         267222         4.5550         0.9531         0.9539
     457         268675         4.5650         0.9541         0.9555
     458         271652         4.5750         0.9604         0.9582
     459         271822         4.5850         0.9569         0.9577
     460         272098         4.5950         0.9537         0.9531
     461         272723         4.6050         0.9517         0.9542
     462         275866         4.6150         0.9585         0.9548
     463         275388         4.6250         0.9527         0.9557
     464         277541         4.6350         0.9560         0.9545
     465         278611         4.6450         0.9556         0.9561
     466         279902         4.6550         0.9559         0.9555
     467         280780         4.6650         0.9548         0.9549
     468         281909         4.6750         0.9545         0.9552
     469         283676         4.6850         0.9564         0.9551
     470         284124         4.6950         0.9538         0.9552
     471         285964         4.7050         0.9559         0.9551
     472         287142         4.7150         0.9558         0.9561
     473         288495         4.7250         0.9563         0.9560
     474         289772         4.7350         0.9564         0.9570
     475         291517         4.7450         0.9581         0.9574
     476         292294         4.7550         0.9567         0.9565
     477         293269         4.7650         0.9558         0.9575
     478         296055         4.7750         0.9609         0.9581
     479         296096         4.7850         0.9570         0.9594
     480         298642         4.7950         0.9612         0.9603
     481         300323         4.8050         0.9626         0.9622
     482         300983         4.8150         0.9607         0.9608
     483         301831         4.8250         0.9594         0.9601
     484         303751         4.8350         0.9615         0.9606
     485         305070         4.8450         0.9617         0.9631
     486         307566         4.8550         0.9656         0.9636
     487         307777         4.8650         0.9623         0.9638
     488         309707         4.8750         0.9644         0.9640
     489         311785         4.8850         0.9669         0.9671
     490         313940         4.8950         0.9696         0.9693
     491         315361         4.9050         0.9700         0.9698
     492         316379         4.9150         0.9692         0.9698
     493         318096         4.9250         0.9705         0.9698
     494         319314         4.9350         0.9702         0.9712
     495         321333         4.9450         0.9724         0.9708
     496         321800         4.9550         0.9699         0.9722
     497         324712         4.9650         0.9748         0.9728
     498         325304         4.9750         0.9726         0.9729
     499         326250         4.9850         0.9715         0.9730
     500         329315         4.9950         0.9767         0.9749
     501         330615         5.0050         0.9767         0.9789
     502         333636         5.0150         0.9817         0.9785
     503         333161         5.0250         0.9764         0.9801
     504         336648         5.0350         0.9827         0.9797
     505         336755         5.0450         0.9791         0.9804
     506         337973         5.0550         0.9788         0.9787
     507         339801         5.0650         0.9802         0.9798
     508         341850         5.0750         0.9822         0.9837
     509         345310         5.0850         0.9882         0.9856
     510         345373         5.0950         0.9846         0.9872
     511         348146         5.1050         0.9886         0.9868
     512         349100         5.1150         0.9874         0.9887
     513         351106         5.1250         0.9892         0.9879
     514         351882         5.1350         0.9875         0.9892
     515         354525         5.1450         0.9911         0.9895
     516         355374         5.1550         0.9896         0.9907
     517         357416         5.1650         0.9915         0.9909
     518         359136         5.1750         0.9924         0.9932
     519         361470         5.1850         0.9950         0.9936
     520         361991         5.1950         0.9926         0.9940
     521         364325         5.2050         0.9951         0.9946
     522         366137         5.2150         0.9963         0.9959
     523         367258         5.2250         0.9955         0.9958
     524         368964         5.2350         0.9963         0.9964
     525         371199         5.2450         0.9985         0.9989
     526         373565         5.2550         1.0011         0.9999
     527         374164         5.2650         0.9989         1.0000
     528         376348         5.2750         1.0009         1.0007
     529         378286         5.2850         1.0022         1.0013
     530         378964         5.2950         1.0002         1.0017
     531         381626         5.3050         1.0035         1.0021
     532         382980         5.3150         1.0032         1.0046
     533         385702         5.3250         1.0066         1.0051
     534         386484         5.3350         1.0048         1.0061
     535         388676         5.3450         1.0068         1.0062
     536         390084         5.3550         1.0066         1.0066
     537         391114         5.3650         1.0055         1.0061
     538         392576         5.3750         1.0056         1.0041
     539         392712         5.3850         1.0022         1.0046
     540         396391         5.3950         1.0078         1.0059
     541         397522         5.4050         1.0069         1.0074
     542         398957         5.4150         1.0069         1.0073
     543         401465         5.4250         1.0095         1.0094
     544         403607         5.4350         1.0111         1.0104
     545         404383         5.4450         1.0093         1.0104
     546         406315         5.4550         1.0104         1.0091
     547         406751         5.4650         1.0078         1.0094
     548         409430         5.4750         1.0108         1.0097
     549         410719         5.4850         1.0103         1.0107
     550         412124         5.4950         1.0100         1.0096
     551         413103         5.5050         1.0087         1.0093
     552         415260         5.5150         1.0103         1.0104
     553         417558         5.5250         1.0123         1.0116
     554         418811         5.5350         1.0116         1.0124
     555         420964         5.5450         1.0132         1.0126
     556         422100         5.5550         1.0122         1.0122
     557         422824         5.5650         1.0103         1.0105
     558         423884         5.5750         1.0092         1.0091
     559         425161         5.5850         1.0087         1.0088
     560         427112         5.5950         1.0097         1.0104
     561         429716         5.6050         1.0122         1.0104
     562         429397         5.6150         1.0079         1.0098
     563         431727         5.6250         1.0097         1.0085
     564         432544         5.6350         1.0080         1.0084
     565         433842         5.6450         1.0075         1.0079
     566         435917         5.6550         1.0087         1.0080
     567         437099         5.6650         1.0079         1.0087
     568         439169         5.6750         1.0091         1.0083
     569         439947         5.6850         1.0073         1.0080
     570         441460         5.6950         1.0073         1.0068
     571         442474         5.7050         1.0060         1.0067
     572         444175         5.7150         1.0064         1.0053
     573         444496         5.7250         1.0036         1.0046
     574         446726         5.7350         1.0051         1.0050
     575         448934         5.7450         1.0066         1.0061
     576         449707         5.7550         1.0048         1.0047
     577         450079         5.7650         1.0021         1.0026
     578         451583         5.7750         1.0020         1.0017
     579         453123         5.7850         1.0020         1.0023
     580         455151         5.7950         1.0030         1.0024
     581         456044         5.8050         1.0015         1.0017
     582         457045         5.8150         1.0002         1.0002
     583         458056         5.8250         0.9990         0.9991
     584         459282         5.8350         0.9982         0.9982
     585         460625         5.8450         0.9977         0.9981
     586         462390         5.8550         0.9981         0.9973
     587         462805         5.8650         0.9956         0.9968
     588         464684         5.8750         0.9963         0.9946
     589         464452         5.8850         0.9924         0.9947
     590         467882         5.8950         0.9963         0.9943
     591         468036         5.9050         0.9933         0.9945
     592         469321         5.9150         0.9927         0.9916
     593         469794         5.9250         0.9903         0.9923
     594         473449         5.9350         0.9946         0.9926
     595         473348         5.9450         0.9911         0.9918
     596         474162         5.9550         0.9895         0.9903
     597         476607         5.9650         0.9912         0.9897
     598         476829         5.9750         0.9884         0.9898
     599         479354         5.9850         0.9903         0.9893
     600         480524         5.9950         0.9894         0.9902
     601         482369         6.0050         0.9899         0.9890
     602         482675         6.0150         0.9872         0.9880
     603         484313         6.0250         0.9873         0.9871
     604         485871         6.0350         0.9872         0.9872
     605         487094         6.0450         0.9864         0.9863
     606         487977         6.0550         0.9849         0.9852
     607         489377         6.0650         0.9845         0.9841
     608         490375         6.0750         0.9833         0.9839
     609         492380         6.0850         0.9841         0.9835
     610         493182         6.0950         0.9824         0.9827
     611         494051         6.1050         0.9809         0.9803
     612         494809         6.1150         0.9792         0.9811
     613         498889         6.1250         0.9841         0.9818
     614         498645         6.1350         0.9804         0.9816
     615         499897         6.1450         0.9797         0.9795
     616         501267         6.1550         0.9792         0.9788
     617         502334         6.1650         0.9781         0.9786
     618         504967         6.1750         0.9800         0.9803
     619         507840         6.1850         0.9824         0.9808
     620         507736         6.1950         0.9790         0.9809
     621         510809         6.2050         0.9818         0.9807
     622         511717         6.2150         0.9804         0.9802
     623         511826         6.2250         0.9774         0.9781
     624         513752         6.2350         0.9780         0.9777
     625         515675         6.2450         0.9785         0.9784
     626         517317         6.2550         0.9785         0.9784
     627         519024         6.2650         0.9786         0.9792
     628         521761         6.2750         0.9806         0.9796
     629         522304         6.2850         0.9785         0.9789
     630         523696         6.2950         0.9780         0.9782
     631         526163         6.3050         0.9795         0.9793
     632         528227         6.3150         0.9802         0.9800
     633         529525         6.3250         0.9795         0.9792
     634         530678         6.3350         0.9785         0.9796
     635         534041         6.3450         0.9816         0.9804
     636         535412         6.3550         0.9811         0.9825
     637         538665         6.3650         0.9839         0.9820
     638         538358         6.3750         0.9803         0.9822
     639         541179         6.3850         0.9823         0.9807
     640         541291         6.3950         0.9795         0.9805
     641         543480         6.4050         0.9804         0.9801
     642         545761         6.4150         0.9814         0.9814
     643         548028         6.4250         0.9824         0.9826
     644         550334         6.4350         0.9835         0.9828
     645         551224         6.4450         0.9820         0.9829
     646         553466         6.4550         0.9830         0.9820
     647         554380         6.4650         0.9815         0.9828
     648         557499         6.4750         0.9840         0.9826
     649         558265         6.4850         0.9823         0.9837
     650         561456         6.4950         0.9849         0.9839
     651         562829         6.5050         0.9843         0.9848
     652         565085         6.5150         0.9852         0.9852
     653         567734         6.5250         0.9868         0.9869
     654         570469         6.5350         0.9885         0.9884
     655         572063         6.5450         0.9882         0.9872
     656         572093         6.5550         0.9853         0.9878
     657         577197         6.5650         0.9910         0.9881
     658         576801         6.5750         0.9874         0.9896
     659         580147         6.5850         0.9901         0.9888
     660         581484         6.5950         0.9893         0.9900
     661         583959         6.6050         0.9905         0.9903
     662         585897         6.6150         0.9908         0.9906
     663         587337         6.6250         0.9903         0.9907
     664         589839         6.6350         0.9915         0.9912
     665         591668         6.6450         0.9916         0.9912
     666         592965         6.6550         0.9908         0.9917
     667         596312         6.6650         0.9934         0.9924
     668         597483         6.6750         0.9923         0.9923
     669         598709         6.6850         0.9914         0.9925
     670         602858         6.6950         0.9953         0.9946
     671         605397         6.7050         0.9965         0.9964
     672         606545         6.7150         0.9954         0.9952
     673         607413         6.7250         0.9939         0.9947
     674         610804         6.7350         0.9965         0.9960
     675         613540         6.7450         0.9980         0.9980
     676         615658         6.7550         0.9985         0.9981
     677         617193         6.7650         0.9980         0.9992
     678         620968         6.7750         1.0011         0.9995
     679         621148         6.7850         0.9985         0.9994
     680         623535         6.7950         0.9994         0.9999
     681         627174         6.8050         1.0022         1.0007
     682         627465         6.8150         0.9998         1.0012
     683         630811         6.8250         1.0021         1.0017
     684         633426         6.8350         1.0034         1.0029
     685         634692         6.8450         1.0024         1.0031
     686         637521         6.8550         1.0040         1.0038
     687         640175         6.8650         1.0052         1.0053
     688         642458         6.8750         1.0059         1.0053
     689         643501         6.8850         1.0046         1.0054
     690         646330         6.8950         1.0061         1.0050
     691         647715         6.9050         1.0053         1.0068
     692         652271         6.9150         1.0094         1.0079
     693         653090         6.9250         1.0078         1.0084
     694         654733         6.9350         1.0074         1.0075
     695         656928         6.9450         1.0079         1.0076
     696         658724         6.9550         1.0077         1.0083
     697         661726         6.9650         1.0094         1.0088
     698         663161         6.9750         1.0087         1.0088
     699         664951         6.9850         1.0085         1.0094
     700         668616         6.9950         1.0112         1.0101
     701         669333         7.0050         1.0094         1.0099
     702         671141         7.0150         1.0092         1.0094
     703         673921         7.0250         1.0105         1.0104
     704         676344         7.0350         1.0113         1.0110
     705         677941         7.0450         1.0108         1.0113
     706         680555         7.0550         1.0118         1.0113
     707         682167         7.0650         1.0114         1.0119
     708         684955         7.0750         1.0126         1.0122
     709         686759         7.0850         1.0124         1.0127
     710         689020         7.0950         1.0129         1.0129
     711         691349         7.1050         1.0135         1.0135
     712         693649         7.1150         1.0140         1.0137
     713         695583         7.1250         1.0140         1.0146
     714         698694         7.1350         1.0156         1.0145
     715         699262         7.1450         1.0136         1.0151
     716         703017         7.1550         1.0162         1.0147
     717         703801         7.1650         1.0145         1.0158
     718         707560         7.1750         1.0171         1.0166
     719         709439         7.1850         1.0170         1.0161
     720         708852         7.1950         1.0133         1.0145
     721         712060         7.2050         1.0150         1.0147
     722         715090         7.2150         1.0165         1.0164
     723         717025         7.2250         1.0165         1.0163
     724         718300         7.2350         1.0155         1.0156
     725         720518         7.2450         1.0158         1.0163
     726         723910         7.2550         1.0178         1.0168
     727         724568         7.2650         1.0159         1.0165
     728         726802         7.2750         1.0162         1.0163
     729         729629         7.2850         1.0174         1.0171
     730         731507         7.2950         1.0172         1.0171
     731         733061         7.3050         1.0166         1.0169
     732         735832         7.3150         1.0176         1.0175
     733         738323         7.3250         1.0183         1.0182
     734         739869         7.3350         1.0176         1.0174
     735         740943         7.3450         1.0163         1.0169
     736         744142         7.3550         1.0180         1.0180
     737         747392         7.3650         1.0196         1.0188
     738         748041         7.3750         1.0177         1.0184
     739         750243         7.3850         1.0180         1.0179
     740         752320         7.3950         1.0180         1.0177
     741         753403         7.4050         1.0168         1.0170
     742         755500         7.4150         1.0168         1.0171
     743         758139         7.4250         1.0176         1.0168
     744         758829         7.4350         1.0158         1.0170
     745         762635         7.4450         1.0182         1.0175
     746         764542         7.4550         1.0180         1.0179
     747         765658         7.4650         1.0167         1.0172
     748         768269         7.4750         1.0175         1.0171
     749         770307         7.4850         1.0175         1.0178
     750         772806         7.4950         1.0180         1.0177
     751         774129         7.5050         1.0171         1.0172
     752         775775         7.5150         1.0165         1.0166
     753         777711         7.5250         1.0164         1.0163
     754         779564         7.5350         1.0161         1.0163
     755         781630         7.5450         1.0161         1.0155
     756         782519         7.5550         1.0145         1.0153
     757         785634         7.5650         1.0159         1.0155
     758         787502         7.5750         1.0156         1.0153
     759         788407         7.5850         1.0141         1.0150
     760         791481         7.5950         1.0154         1.0142
     761         791826         7.6050         1.0131         1.0140
     762         795085         7.6150         1.0146         1.0149
     763         798834         7.6250         1.0168         1.0152
     764         798010         7.6350         1.0130         1.0147
     765         801639         7.6450         1.0150         1.0143
     766         803487         7.6550         1.0147         1.0143
     767         804063         7.6650         1.0128         1.0136
     768         807449         7.6750         1.0144         1.0141
     769         809882         7.6850         1.0148         1.0142
     770         809870         7.6950         1.0121         1.0125
     771         811296         7.7050         1.0113         1.0117
     772         814677         7.7150         1.0129         1.0125
     773         816861         7.7250         1.0130         1.0130
     774         818287         7.7350         1.0121         1.0116
     775         818911         7.7450         1.0103         1.0114
     776         823001         7.7550         1.0127         1.0117
     777         824228         7.7650         1.0116         1.0118
     778         825682         7.7750         1.0108         1.0111
     779         828026         7.7850         1.0110         1.0103
     780         828438         7.7950         1.0089         1.0094
     781         830879         7.8050         1.0093         1.0099
     782         834705         7.8150         1.0114         1.0097
     783         833382         7.8250         1.0072         1.0088
     784         836500         7.8350         1.0084         1.0075
     785         837954         7.8450         1.0076         1.0078
     786         839704         7.8550         1.0071         1.0072
     787         841862         7.8650         1.0071         1.0070
     788         843649         7.8750         1.0067         1.0069
     789         845829         7.8850         1.0067         1.0065
     790         847053         7.8950         1.0056         1.0057
     791         848513         7.9050         1.0048         1.0049
     792         850718         7.9150         1.0049         1.0050
     793         853502         7.9250         1.0056         1.0053
     794         855480         7.9350         1.0054         1.0059
     795         858377         7.9450         1.0063         1.0058
     796         859527         7.9550         1.0051         1.0052
     797         861137         7.9650         1.0045         1.0050
     798         864318         7.9750         1.0057         1.0051
     799         865290         7.9850         1.0043         1.0045
     800         866251         7.9950         1.0029         1.0026
     801         866925         8.0050         1.0011         1.0017
     802         870127         8.0150         1.0023         1.0022
     803         872660         8.0250         1.0028         1.0024
     804         873155         8.0350         1.0008         1.0011
     805         874006         8.0450         0.9993         0.9988
     806         874633         8.0550         0.9975         0.9988
     807         880051         8.0650         1.0012         1.0003
     808         882026         8.0750         1.0010         1.0008
     809         882004         8.0850         0.9985         0.9989
     810         883871         8.0950         0.9981         0.9987
     811         887764         8.1050         1.0001         0.9989
     812         888184         8.1150         0.9981         0.9991
     813         891222         8.1250         0.9990         0.9983
     814         892176         8.1350         0.9976         0.9980
     815         893597         8.1450         0.9968         0.9965
     816         894671         8.1550         0.9955         0.9958
     817         897179         8.1650         0.9959         0.9958
     818         899706         8.1750         0.9962         0.9962
     819         901636         8.1850         0.9959         0.9958
     820         902659         8.1950         0.9946         0.9947
     821         904284         8.2050         0.9940         0.9942
     822         907374         8.2150         0.9950         0.9951
     823         910847         8.2250         0.9963         0.9959
     824         911913         8.2350         0.9951         0.9952
     825         912840         8.2450         0.9937         0.9938
     826         915040         8.2550         0.9937         0.9939
     827         918341         8.2650         0.9948         0.9947
     828         920286         8.2750         0.9945         0.9940
     829         920139         8.2850         0.9920         0.9928
     830         923092         8.2950         0.9928         0.9923
     831         925385         8.3050         0.9928         0.9931
     832         928427         8.3150         0.9937         0.9937
     833         930594         8.3250         0.9936         0.9930
     834         930094         8.3350         0.9907         0.9915
     835         932703         8.3450         0.9911         0.9912
     836         936180         8.3550         0.9924         0.9918
     837         937066         8.3650         0.9910         0.9912
     838         939184         8.3750         0.9909         0.9916
     839         943975         8.3850         0.9936         0.9926
     840         944892         8.3950         0.9922         0.9927
     841         945958         8.4050         0.9909         0.9901
     842         945401         8.4150         0.9880         0.9896
     843         950965         8.4250         0.9914         0.9900
     844         952194         8.4350         0.9904         0.9910
     845         954866         8.4450         0.9908         0.9907
     846         957368         8.4550         0.9910         0.9912
     847         959591         8.4650         0.9910         0.9903
     848         959772         8.4750         0.9888         0.9900
     849         964559         8.4850         0.9914         0.9908
     850         967233         8.4950         0.9918         0.9915
     851         967995         8.5050         0.9903         0.9912
     852         971425         8.5150         0.9915         0.9907
     853         972233         8.5250         0.9900         0.9900
     854         973456         8.5350         0.9889         0.9894
     855         977457         8.5450         0.9906         0.9905
     856         980398         8.5550         0.9913         0.9905
     857         980348         8.5650         0.9889         0.9901
     858         984346         8.5750         0.9906         0.9899
     859         986091         8.5850         0.9901         0.9903
     860         987926         8.5950         0.9896         0.9896
     861         990022         8.6050         0.9894         0.9896
     862         992982         8.6150         0.9901         0.9899
     863         995306         8.6250         0.9901         0.9903
     864         998025         8.6350         0.9905         0.9901
     865         999329         8.6450         0.9895         0.9901
     866        1002528         8.6550         0.9904         0.9896
     867        1003394         8.6650         0.9889         0.9898
     868        1007045         8.6750         0.9903         0.9896
     869        1008869         8.6850         0.9898         0.9903
     870        1012205         8.6950         0.9908         0.9905
     871        1014536         8.7050         0.9908         0.9907
     872        1016600         8.7150         0.9905         0.9908
     873        1019887         8.7250         0.9914         0.9912
     874        1022237         8.7350         0.9914         0.9912
     875        1023581         8.7450         0.9905         0.9911
     876        1027209         8.7550         0.9917         0.9910
     877        1028380         8.7650         0.9906         0.9910
     878        1031397         8.7750         0.9912         0.9915
     879        1035221         8.7850         0.9926         0.9920
     880        1035625         8.7950         0.9908         0.9908
     881        1036413         8.8050         0.9893         0.9898
     882        1040834         8.8150         0.9912         0.9911
     883        1045225         8.8250         0.9932         0.9928
     884        1047076         8.8350         0.9927         0.9928
     885        1048785         8.8450         0.9920         0.9918
     886        1050723         8.8550         0.9916         0.9925
     887        1055799         8.8650         0.9942         0.9929
     888        1055767         8.8750         0.9919         0.9925
     889        1057808         8.8850         0.9916         0.9918
     890        1061302         8.8950         0.9926         0.9920
     891        1062772         8.9050         0.9918         0.9925
     892        1067066         8.9150         0.9935         0.9932
     893        1069661         8.9250         0.9937         0.9935
     894        1070727         8.9350         0.9925         0.9926
     895        1073000         8.9450         0.9924         0.9930
     896        1078148         8.9550         0.9949         0.9941
     897        1079918         8.9650         0.9943         0.9948
     898        1082691         8.9750         0.9947         0.9944
     899        1084928         8.9850         0.9945         0.9949
     900        1088546         8.9950         0.9956         0.9952
     901        1090337         9.0050         0.9950         0.9950
     902        1092122         9.0150         0.9944         0.9947
     903        1095410         9.0250         0.9952         0.9950
     904        1097830         9.0350         0.9952         0.9951
     905        1100190         9.0450         0.9952         0.9958
     906        1104343         9.0550         0.9967         0.9956
     907        1104329         9.0650         0.9945         0.9954
     908        1107897         9.0750         0.9955         0.9953
     909        1111510         9.0850         0.9966         0.9965
     910        1114097         9.0950         0.9967         0.9964
     911        1115866         9.1050         0.9961         0.9969
     912        1120284         9.1150         0.9978         0.9965
     913        1120239         9.1250         0.9956         0.9973
     914        1126178         9.1350         0.9987         0.9970
     915        1126234         9.1450         0.9966         0.9977
     916        1130073         9.1550         0.9978         0.9970
     917        1131663         9.1650         0.9970         0.9976
     918        1135678         9.1750         0.9983         0.9982
     919        1138734         9.1850         0.9989         0.9982
     920        1138891         9.1950         0.9968         0.9977
     921        1142890         9.2050         0.9981         0.9979
     922        1146323         9.2150         0.9990         0.9986
     923        1147628         9.2250         0.9979         0.9981
     924        1149692         9.2350         0.9976         0.9978
     925        1153592         9.2450         0.9988         0.9987
     926        1156744         9.2550         0.9994         0.9991
     927        1158296         9.2650         0.9985         0.9987
     928        1160636         9.2750         0.9984         0.9988
     929        1164597         9.2850         0.9997         0.9990
     930        1165620         9.2950         0.9984         0.9984
     931        1167830         9.3050         0.9981         0.9993
     932        1174856         9.3150         1.0020         1.0001
     933        1174309         9.3250         0.9994         1.0010
     934        1179325         9.3350         1.0015         1.0001
     935        1179988         9.3450         0.9999         1.0014
     936        1185921         9.3550         1.0028         1.0015
     937        1185534         9.3650         1.0003         1.0003
     938        1185449         9.3750         0.9981         0.9994
     939        1192292         9.3850         1.0017         1.0008
     940        1195263         9.3950         1.0021         1.0023
     941        1197171         9.4050         1.0016         1.0012
     942        1197779         9.4150         0.9999         1.0007
     943        1201787         9.4250         1.0012         1.0001
     944        1202925         9.4350         1.0000         1.0012
     945        1209221         9.4450         1.0031         1.0022
     946        1211591         9.4550         1.0029         1.0031
     947        1213241         9.4650         1.0022         1.0022
     948        1214713         9.4750         1.0013         1.0010
     949        1215726         9.4850         1.0000         1.0008
     950        1220365         9.4950         1.0017         1.0004
     951        1220778         9.5050         0.9999         1.0017
     952        1227934         9.5150         1.0037         1.0016
     953        1226968         9.5250         1.0008         1.0024
     954        1232101         9.5350         1.0029         1.0020
     955        1234151         9.5450         1.0024         1.0025
     956        1236103         9.5550         1.0019         1.0020
     957        1239332         9.5650         1.0024         1.0028
     958        1243438         9.5750         1.0037         1.0026
     959        1242913         9.5850         1.0011         1.0021
     960        1247036         9.5950         1.0024         1.0022
     961        1251011         9.6050         1.0035         1.0030
     962        1252561         9.6150         1.0026         1.0031
     963        1256238         9.6250         1.0035         1.0035
     964        1260169         9.6350         1.0045         1.0042
     965        1261737         9.6450         1.0037         1.0037
     966        1262674         9.6550         1.0024         1.0024
     967        1264715         9.6650         1.0019         1.0021
     968        1268512         9.6750         1.0028         1.0029
     969        1272197         9.6850         1.0037         1.0032
     970        1272780         9.6950         1.0021         1.0023
     971        1274480         9.7050         1.0013         1.0015
     972        1278133         9.7150         1.0021         1.0023
     973        1282761         9.7250         1.0037         1.0033
     974        1285044         9.7350         1.0034         1.0036
     975        1287653         9.7450         1.0034         1.0036
     976        1290615         9.7550         1.0036         1.0031
     977        1291649         9.7650         1.0024         1.0033
     978        1296985         9.7750         1.0045         1.0037
     979        1299102         9.7850         1.0041         1.0044
     980        1301980         9.7950         1.0042         1.0042
     981        1304291         9.8050         1.0040         1.0039
     982        1305715         9.8150         1.0030         1.0028
     983        1306793         9.8250         1.0018         1.0021
     984        1310800         9.8350         1.0028         1.0031
     985        1316024         9.8450         1.0048         1.0043
     986        1317244         9.8550         1.0037         1.0033
     987        1316693         9.8650         1.0012         1.0022
     988        1321799         9.8750         1.0031         1.0025
     989        1325023         9.8850         1.0035         1.0035
     990        1327261         9.8950         1.0031         1.0031
     991        1329413         9.9050         1.0027         1.0030
     992        1333209         9.9150         1.0036         1.0034
     993        1336014         9.9250         1.0037         1.0033
     994        1337202         9.9350         1.0025         1.0031
     995        1341393         9.9450         1.0037         1.0036
     996        1344782         9.9550         1.0042         1.0034
     997        1344187         9.9650         1.0017         1.0029
     998        1349045         9.9750         1.0033         1.0026
     999        1350807         9.9850         1.0026         1.0025
    1000        1351749         9.9950         1.0013         1.0019
    1001        1356359        10.0050         1.0027         1.0024
    1002        1359202        10.0150         1.0028         1.0023
    1003        1359969        10.0250         1.0014         1.0024
    1004        1366213        10.0350         1.0040         1.0032
    1005        1368648        10.0450         1.0038         1.0038
    1006        1370416        10.0550         1.0031         1.0033
    1007        1373405        10.0650         1.0033         1.0034
    1008        1376316        10.0750         1.0034         1.0028
    1009        1375936        10.0850         1.0011         1.0017
    1010        1378723        10.0950         1.0012         1.0009
    1011        1381420        10.1050         1.0011         1.0013
    1012        1385614        10.1150         1.0022         1.0024
    1013        1390268        10.1250         1.0036         1.0028
    1014        1390813        10.1350         1.0020         1.0030
    1015        1395224        10.1450         1.0032         1.0023
    1016        1395443        10.1550         1.0014         1.0020
    1017        1398326        10.1650         1.0015         1.0013
    1018        1401132        10.1750         1.0015         1.0015
    1019        1404119        10.1850         1.0017         1.0018
    1020        1407798        10.1950         1.0023         1.0021
    1021        1410206        10.2050         1.0021         1.0020
    1022        1412541        10.2150         1.0018         1.0022
    1023        1416630        10.2250         1.0027         1.0019
    1024        1416633        10.2350         1.0007         1.0012
    1025        1419858        10.2450         1.0011         1.0016
    1026        1425783        10.2550         1.0033         1.0018
    1027        1424404        10.2650         1.0004         1.0018
    1028        1429804        10.2750         1.0022         1.0014
    1029        1431899        10.2850         1.0017         1.0019
    1030        1433985        10.2950         1.0012         1.0012
    1031        1436717        10.3050         1.0012         1.0014
    1032        1440525        10.3150         1.0019         1.0016
    1033        1442642        10.3250         1.0014         1.0016
    1034        1445377        10.3350         1.0014         1.0012
    1035        1447192        10.3450         1.0007         1.0005
    1036        1448953        10.3550         1.0000         1.0006
    1037        1454567        10.3650         1.0019         1.0013
    1038        1457084        10.3750         1.0017         1.0019
    1039        1459643        10.3850         1.0015         1.0016
    1040        1462486        10.3950         1.0016         1.0014
    1041        1464283        10.4050         1.0009         1.0008
    1042        1466428        10.4150         1.0004         1.0010
    1043        1472232        10.4250         1.0024         1.0017
    1044        1474206        10.4350         1.0019         1.0023
    1045        1477052        10.4450         1.0019         1.0014
    1046        1477774        10.4550         1.0005         1.0011
    1047        1481871        10.4650         1.0013         1.0009
    1048        1484187        10.4750         1.0010         1.0010
    1049        1486084        10.4850         1.0003         1.0006
    1050        1488891        10.4950         1.0003         0.9998
    1051        1489508        10.5050         0.9988         0.9995
    1052        1494225        10.5150         1.0001         0.9996
    1053        1497145        10.5250         1.0001         1.0004
    1054        1501098        10.5350         1.0009         1.0006
    1055        1503520        10.5450         1.0006         1.0009
    1056        1507073        10.5550         1.0011         1.0009
    1057        1509781        10.5650         1.0010         1.0009
    1058        1511489        10.5750         1.0002         0.9999
    1059        1512402        10.5850         0.9989         0.9996
    1060        1517878        10.5950         1.0006         1.0000
    1061        1520736        10.6050         1.0006         1.0012
    1062        1525059        10.6150         1.0016         1.0007
    1063        1524587        10.6250         0.9994         1.0003
    1064        1528912        10.6350         1.0003         0.9999
    1065        1531338        10.6450         1.0000         0.9999
    1066        1533077        10.6550         0.9993         0.9997
    1067        1537351        10.6650         1.0002         0.9999
    1068        1540125        10.6750         1.0001         1.0001
    1069        1542022        10.6850         0.9995         0.9996
    1070        1544800        10.6950         0.9994         0.9994
    1071        1547826        10.7050         0.9995         0.9995
    1072        1551224        10.7150         0.9998         1.0002
    1073        1556019        10.7250         1.0011         1.0003
    1074        1556607        10.7350         0.9996         1.0003
    1075        1560414        10.7450         1.0002         0.9997
    1076        1562175        10.7550         0.9994         0.9997
    1077        1564884        10.7650         0.9993         0.9988
    1078        1566180        10.7750         0.9983         0.9993
    1079        1573324        10.7850         1.0010         0.9998
    1080        1574447        10.7950         0.9998         1.0006
    1081        1578255        10.8050         1.0004         0.9995
    1082        1578216        10.8150         0.9985         0.9995
    1083        1583253        10.8250         0.9998         0.9988
    1084        1583557        10.8350         0.9982         0.9991
    1085        1588842        10.8450         0.9997         0.9991
    1086        1591710        10.8550         0.9996         1.0000
    1087        1595513        10.8650         1.0002         0.9999
    1088        1597329        10.8750         0.9995         0.9996
    1089        1600226        10.8850         0.9995         0.9997
    1090        1604652        10.8950         1.0004         0.9998
    1091        1605635        10.9050         0.9992         0.9996
    1092        1609035        10.9150         0.9994         0.9995
    1093        1612936        10.9250         1.0000         0.9994
    1094        1613399        10.9350         0.9985         0.9992
    1095        1617601        10.9450         0.9993         0.9987
    1096        1619381        10.9550         0.9985         0.9989
    1097        1623766        10.9650         0.9994         0.9996
    1098        1629250        10.9750         1.0010         1.0004
    1099        1630016        10.9850         0.9996         0.9997
    1100        1631334        10.9950         0.9986         0.9989
    1101        1635823        11.0050         0.9995         0.9993
    1102        1639457        11.0150         0.9999         0.9999
    1103        1642088        11.0250         0.9997         0.9997
    1104        1644565        11.0350         0.9994         0.9993
    1105        1647226        11.0450         0.9992         0.9996
    1106        1651976        11.0550         1.0003         0.9999
    1107        1653433        11.0650         0.9994         0.9992
    1108        1654084        11.0750         0.9979         0.9986
    1109        1659458        11.0850         0.9994         0.9988
    1110        1662132        11.0950         0.9992         0.9995
    1111        1665547        11.1050         0.9994         0.9990
    1112        1667038        11.1150         0.9985         0.9989
    1113        1671930        11.1250         0.9997         0.9999
    1114        1677907        11.1350         1.0014         1.0008
    1115        1678485        11.1450         1.0000         1.0003
    1116        1680444        11.1550         0.9994         0.9997
    1117        1684833        11.1650         1.0002         0.9997
    1118        1686326        11.1750         0.9993         0.9993
    1119        1688400        11.1850         0.9987         0.9991
    1120        1693391        11.1950         0.9999         0.9995
    1121        1696383        11.2050         0.9999         1.0002
    1122        1700751        11.2150         1.0006         1.0002
    1123        1702467        11.2250         0.9999         1.0003
    1124        1706304        11.2350         1.0003         1.0004
    1125        1709438        11.2450         1.0004         0.9996
    1126        1708851        11.2550         0.9983         0.9998
    1127        1717147        11.2650         1.0013         0.9998
    1128        1716564        11.2750         0.9992         1.0003
    1129        1721054        11.2850         1.0001         0.9996
    1130        1723360        11.2950         0.9996         0.9995
    1131        1725014        11.3050         0.9988         0.9995
    1132        1731090        11.3150         1.0006         1.0000
    1133        1733667        11.3250         1.0003         1.0004
    1134        1736440        11.3350         1.0001         1.0007
    1135        1741684        11.3450         1.0014         1.0003
    1136        1740349        11.3550         0.9988         0.9997
    1137        1744984        11.3650         0.9997         0.9998
    1138        1750796        11.3750         1.0013         1.0005
    1139        1751010        11.3850         0.9997         1.0006
    1140        1755826        11.3950         1.0007         1.0001
    1141        1757484        11.4050         0.9999         1.0000
    1142        1759614        11.4150         0.9993         0.9996
    1143        1763868        11.4250         1.0000         0.9994
    1144        1765472        11.4350         0.9991         1.0001
    1145        1772512        11.4450         1.0014         1.0004
    1146        1773303        11.4550         1.0001         1.0007
    1147        1777118        11.4650         1.0005         1.0001
    1148        1779405        11.4750         1.0000         1.0002
    1149        1782685        11.4850         1.0001         0.9999
    1150        1785298        11.4950         0.9998         1.0003
    1151        1789865        11.5050         1.0007         0.9999
    1152        1790047        11.5150         0.9990         0.9998
    1153        1795331        11.5250         1.0002         0.9998
    1154        1798381        11.5350         1.0002         1.0001
    1155        1800169        11.5450         0.9995         0.9997
    1156        1803763        11.5550         0.9997         0.9994
    1157        1806265        11.5650         0.9994         0.9997
    1158        1810956        11.5750         1.0002         1.0001
    1159        1815186        11.5850         1.0008         1.0011
    1160        1819546        11.5950         1.0015         1.0009
    1161        1819109        11.6050         0.9996         1.0001
    1162        1822916        11.6150         0.9999         1.0000
    1163        1827932        11.6250         1.0009         1.0005
    1164        1829073        11.6350         0.9999         1.0000
    1165        1831090        11.6450         0.9992         0.9996
    1166        1836578        11.6550         1.0005         1.0002
    1167        1839589        11.6650         1.0004         1.0003
    1168        1841239        11.6750         0.9996         1.0000
    1169        1845291        11.6850         1.0001         0.9999
    1170        1848329        11.6950         1.0000         1.0002
    1171        1852038        11.7050         1.0003         1.0003
    1172        1854708        11.7150         1.0001         0.9998
    1173        1855959        11.7250         0.9990         0.9994
    1174        1860297        11.7350         0.9997         0.9997
    1175        1865034        11.7450         1.0005         1.0001
    1176        1866708        11.7550         0.9997         1.0002
    1177        1870732        11.7650         1.0002         0.9994
    1178        1871704        11.7750         0.9990         1.0003
    1179        1880598        11.7850         1.0020         1.0003
    1180        1878839        11.7950         0.9994         1.0009
    1181        1884806        11.8050         1.0009         0.9997
    1182        1884562        11.8150         0.9990         0.9998
    1183        1888961        11.8250         0.9997         0.9994
    1184        1892741        11.8350         1.0000         1.0000
    1185        1896936        11.8450         1.0005         1.0006
    1186        1901255        11.8550         1.0011         1.0009
    1187        1903150        11.8650         1.0004         1.0001
    1188        1904012        11.8750         0.9992         1.0000
    1189        1911122        11.8850         1.0012         1.0004
    1190        1912619        11.8950         1.0003         1.0004
    1191        1913854        11.9050         0.9993         0.9996
    1192        1918299        11.9150         0.9999         0.9996
    1193        1921346        11.9250         0.9998         0.9999
    1194        1924750        11.9350         0.9999         1.0001
    1195        1928865        11.9450         1.0004         1.0001
    1196        1931170        11.9550         0.9999         1.0003
    1197        1935159        11.9650         1.0003         1.0000
    1198        1936558        11.9750         0.9994         0.9994
    1199        1938128        11.9850         0.9985         0.9986
    1200        1942096        11.9950         0.9989         0.9990
    1201        1947844        12.0050         1.0002         1.0002
    1202        1952895        12.0150         1.0011         1.0007
    1203        1953819        12.0250         0.9999         1.0000
    1204        1955293        12.0350         0.9990         0.9991
    1205        1958945        12.0450         0.9992         0.9992
    1206        1963757        12.0550         1.0000         1.0000
    1207        1968086        12.0650         1.0005         1.0002
    1208        1970130        12.0750         0.9999         1.0004
    1209        1975204        12.0850         1.0008         1.0006
    1210        1978347        12.0950         1.0008         1.0005
    1211        1978684        12.1050         0.9993         0.9996
    1212        1981668        12.1150         0.9991         0.9990
    1213        1985429        12.1250         0.9994         0.9997
    1214        1991179        12.1350         1.0006         1.0001
    1215        1992820        12.1450         0.9998         1.0001
    1216        1995401        12.1550         0.9994         0.9991
    1217        1996568        12.1650         0.9984         0.9989
    1218        2001952        12.1750         0.9994         0.9991
    1219        2006276        12.1850         0.9999         1.0001
    1220        2010904        12.1950         1.0006         1.0004
    1221        2012490        12.2050         0.9998         0.9996
    1222        2012653        12.2150         0.9982         0.9988
    1223        2017852        12.2250         0.9991         0.9986
    1224        2020435        12.2350         0.9988         0.9991
    1225        2025469        12.2450         0.9996         0.9996
    1226        2030133        12.2550         1.0003         1.0002
    1227        2032302        12.2650         0.9997         0.9996
    1228        2033534        12.2750         0.9987         0.9994
    1229        2039659        12.2850         1.0001         0.9991
    1230        2039754        12.2950         0.9985         0.9995
    1231        2046371        12.3050         1.0001         0.9995
    1232        2048851        12.3150         0.9997         0.9999
    1233        2052023        12.3250         0.9996         0.9998
    1234        2056572        12.3350         1.0002         0.9998
    1235        2058549        12.3450         0.9996         1.0000
    1236        2063436        12.3550         1.0003         1.0000
    1237        2065968        12.3650         0.9999         1.0002
    1238        2068676        12.3750         0.9996         0.9991
    1239        2068433        12.3850         0.9979         0.9988
    1240        2075515        12.3950         0.9997         0.9990
    1241        2078173        12.4050         0.9994         0.9995
    1242        2081902        12.4150         0.9996         0.9999
    1243        2088154        12.4250         1.0009         1.0006
    1244        2090567        12.4350         1.0005         1.0005
    1245        2091745        12.4450         0.9994         0.9997
    1246        2095131        12.4550         0.9995         0.9991
    1247        2097578        12.4650         0.9990         0.9996
    1248        2103458        12.4750         1.0002         0.9991
    1249        2101673        12.4850         0.9978         0.9987
    1250        2107791        12.4950         0.9991         0.9989
    1251        2113594        12.5050         1.0002         0.9997
    1252        2114520        12.5150         0.9991         0.9994
    1253        2117648        12.5250         0.9989         0.9989
    1254        2122277        12.5350         0.9995         1.0000
    1255        2129378        12.5450         1.0013         1.0002
    1256        2127475        12.5550         0.9988         0.9997
    1257        2132295        12.5650         0.9994         0.9993
    1258        2136910        12.5750         1.0000         0.9999
    1259        2139005        12.5850         0.9994         0.9989
    1260        2138330        12.5950         0.9975         0.9986
    1261        2146979        12.6050         1.0000         0.9989
    1262        2148505        12.6150         0.9991         0.9999
    1263        2153612        12.6250         0.9999         0.9991
    1264        2153382        12.6350         0.9982         0.9988
    1265        2158161        12.6450         0.9988         0.9988
    1266        2163734        12.6550         0.9998         0.9996
    1267        2166728        12.6650         0.9996         0.9995
    1268        2169570        12.6750         0.9993         1.0001
    1269        2177465        12.6850         1.0014         1.0002
    1270        2175496        12.6950         0.9989         1.0000
    1271        2180309        12.7050         0.9996         0.9990
    1272        2182111        12.7150         0.9988         0.9991
    1273        2186256        12.7250         0.9991         0.9990
    1274        2189663        12.7350         0.9991         0.9992
    1275        2193330        12.7450         0.9992         0.9991
    1276        2195866        12.7550         0.9988         0.9988
    1277        2199297        12.7650         0.9988         0.9991
    1278        2204898        12.7750         0.9998         0.9993
    1279        2207227        12.7850         0.9993         0.9999
    1280        2213453        12.7950         1.0005         1.0000
    1281        2215654        12.8050         1.0000         1.0005
    1282        2220539        12.8150         1.0006         1.0001
    1283        2221593        12.8250         0.9995         0.9996
    1284        2223934        12.8350         0.9990         0.9993
    1285        2229484        12.8450         0.9999         0.9996
    1286        2232108        12.8550         0.9996         0.9995
    1287        2234119        12.8650         0.9989         0.9992
    1288        2239008        12.8750         0.9995         0.9995
    1289        2243451        12.8850         1.0000         0.9996
    1290        2244606        12.8950         0.9989         0.9995
    1291        2250164        12.9050         0.9999         0.9995
    1292        2253200        12.9150         0.9997         0.9999
    1293        2256622        12.9250         0.9996         0.9992
    1294        2257898        12.9350         0.9986         0.9992
    1295        2264329        12.9450         0.9999         0.9994
    1296        2267289        12.9550         0.9997         1.0001
    1297        2271456        12.9650         1.0000         0.9994
    1298        2270989        12.9750         0.9982         0.9988
    1299        2275290        12.9850         0.9986         0.9984
    1300        2279278        12.9950         0.9988         0.9986
    1301        2282449        13.0050         0.9987         0.9990
    1302        2288672        13.0150         0.9998         0.9996
    1303        2292013        13.0250         0.9998         0.9997
    1304        2294277        13.0350         0.9992         0.9996
    1305        2299161        13.0450         0.9998         0.9992
    1306        2299752        13.0550         0.9985         0.9993
    1307        2306057        13.0650         0.9997         0.9989
    1308        2307711        13.0750         0.9989         1.0000
    1309        2316743        13.0850         1.0013         1.0000
    1310        2315151        13.0950         0.9991         1.0001
    1311        2320065        13.1050         0.9997         0.9991
    1312        2322477        13.1150         0.9992         1.0000
    1313        2330257        13.1250         1.0010         1.0000
    1314        2329560        13.1350         0.9992         0.9997
    1315        2333183        13.1450         0.9992         0.9994
    1316        2339191        13.1550         1.0003         0.9998
    1317        2341391        13.1650         0.9997         1.0002
    1318        2347882        13.1750         1.0010         1.0008
    1319        2352305        13.1850         1.0013         1.0008
    1320        2352080        13.1950         0.9997         1.0006
    1321        2359212        13.2050         1.0012         1.0005
    1322        2361461        13.2150         1.0007         1.0013
    1323        2366976        13.2250         1.0015         1.0007
    1324        2366071        13.2350         0.9996         1.0003
    1325        2371249        13.2450         1.0003         0.9999
    1326        2374440        13.2550         1.0001         1.0000
    1327        2377060        13.2650         0.9997         0.9999
    1328        2381749        13.2750         1.0001         1.0000
    1329        2384845        13.2850         0.9999         0.9996
    1330        2385499        13.2950         0.9987         0.9995
    1331        2393664        13.3050         1.0006         1.0001
    1332        2397137        13.3150         1.0006         1.0005
    1333        2399249        13.3250         1.0000         1.0003
    1334        2404041        13.3350         1.0004         0.9998
    1335        2404602        13.3450         0.9992         1.0001
    1336        2413235        13.3550         1.0013         1.0006
    1337        2415754        13.3650         1.0008         1.0010
    1338        2417782        13.3750         1.0002         1.0002
    1339        2420973        13.3850         1.0000         1.0002
    1340        2426813        13.3950         1.0009         1.0005
    1341        2429283        13.4050         1.0004         1.0007
    1342        2432956        13.4150         1.0004         1.0002
    1343        2435477        13.4250         1.0000         1.0002
    1344        2440390        13.4350         1.0005         1.0005
    1345        2444593        13.4450         1.0007         1.0004
    1346        2445114        13.4550         0.9995         0.9999
    1347        2449827        13.4650         0.9999         0.9998
    1348        2454631        13.4750         1.0004         1.0003
    1349        2458333        13.4850         1.0004         1.0006
    1350        2462332        13.4950         1.0006         1.0001
    1351        2462919        13.5050         0.9993         0.9997
    1352        2467984        13.5150         0.9999         1.0000
    1353        2474612        13.5250         1.0011         1.0006
    1354        2476312        13.5350         1.0003         1.0008
    1355        2481861        13.5450         1.0011         1.0008
    1356        2485007        13.5550         1.0008         1.0009
    1357        2487256        13.5650         1.0003         1.0001
    1358        2488988        13.5750         0.9995         0.9998
    1359        2494329        13.5850         1.0002         0.9998
    1360        2497315        13.5950         0.9999         1.0002
    1361        2503088        13.6050         1.0007         1.0004
    1362        2506880        13.6150         1.0008         1.0013
    1363        2513802        13.6250         1.0021         1.0014
    1364        2513934        13.6350         1.0006         1.0010
    1365        2516614        13.6450         1.0002         1.0003
    1366        2522056        13.6550         1.0009         1.0010
    1367        2527762        13.6650         1.0017         1.0013
    1368        2528204        13.6750         1.0005         1.0009
    1369        2531771        13.6850         1.0004         1.0003
    1370        2534887        13.6950         1.0002         1.0001
    1371        2537353        13.7050         0.9997         0.9999
    1372        2542201        13.7150         1.0001         0.9997
    1373        2544851        13.7250         0.9997         1.0003
    1374        2552388        13.7350         1.0012         1.0006
    1375        2553747        13.7450         1.0003         1.0007
    1376        2557538        13.7550         1.0003         0.9999
    1377        2558957        13.7650         0.9994         0.9999
    1378        2565512        13.7750         1.0005         1.0004
    1379        2570113        13.7850         1.0009         1.0004
    1380        2570353        13.7950         0.9995         1.0001
    1381        2576590        13.8050         1.0005         1.0004
    1382        2582398        13.8150         1.0013         1.0012
    1383        2585304        13.8250         1.0010         1.0007
    1384        2585777        13.8350         0.9997         1.0004
    1385        2593085        13.8450         1.0011         1.0005
    1386        2595951        13.8550         1.0007         1.0011
    1387        2600253        13.8650         1.0010         1.0005
    1388        2601999        13.8750         1.0002         1.0011
    1389        2610911        13.8850         1.0022         1.0012
    1390        2609634        13.8950         1.0002         1.0005
    1391        2610385        13.9050         0.9991         0.9996
    1392        2618366        13.9150         1.0007         1.0001
    1393        2621714        13.9250         1.0005         1.0007
    1394        2625755        13.9350         1.0006         1.0007
    1395        2629839        13.9450         1.0008         1.0006
    1396        2632620        13.9550         1.0004         1.0005
    1397        2636757        13.9650         1.0005         1.0006
    1398        2641971        13.9750         1.0011         1.0008
    1399        2644206        13.9850         1.0005         1.0006
    1400        2648279        13.9950         1.0006         1.0009
    1401        2654493        14.0050         1.0015         1.0008
    1402        2654528        14.0150         1.0001         1.0009
    1403        2660807        14.0250         1.0010         1.0001
    1404        2660233        14.0350         0.9994         1.0004
    1405        2668666        14.0450         1.0011         1.0005
    1406        2671416        14.0550         1.0007         1.0009
    1407        2674777        14.0650         1.0006         1.0009
    1408        2680792        14.0750         1.0014         1.0011
    1409        2682378        14.0850         1.0006         1.0003
    1410        2682318        14.0950         0.9991         1.0000
    1411        2690391        14.1050         1.0007         0.9996
    1412        2689808        14.1150         0.9991         1.0001
    1413        2697762        14.1250         1.0006         0.9996
    1414        2698153        14.1350         0.9993         1.0002
    1415        2705678        14.1450         1.0007         1.0003
    1416        2709461        14.1550         1.0007         1.0008
    1417        2713072        14.1650         1.0006         1.0005
    1418        2715256        14.1750         1.0000         0.9999
    1419        2717367        14.1850         0.9994         0.9998
    1420        2723517        14.1950         1.0002         0.9995
    1421        2724569        14.2050         0.9992         1.0002
    1422        2733590        14.2150         1.0011         0.9999
    1423        2731270        14.2250         0.9988         0.9997
    1424        2736327        14.2350         0.9993         0.9991
    1425        2741399        14.2450         0.9997         0.9995
    1426        2744995        14.2550         0.9996         1.0001
    1427        2752107        14.2650         1.0008         1.0000
    1428        2751919        14.2750         0.9994         1.0001
    1429        2758964        14.2850         1.0005         1.0002
    1430        2762865        14.2950         1.0005         1.0002
    1431        2763865        14.3050         0.9995         1.0001
    1432        2771543        14.3150         1.0009         1.0004
    1433        2774720        14.3250         1.0006         1.0006
    1434        2777381        14.3350         1.0002         1.0005
    1435        2783249        14.3450         1.0009         1.0007
    1436        2785843        14.3550         1.0004         1.0002
    1437        2786367        14.3650         0.9992         0.9997
    1438        2792532        14.3750         1.0000         0.9997
    1439        2796323        14.3850         1.0000         1.0003
    1440        2802199        14.3950         1.0007         1.0004
    1441        2804142        14.4050         1.0000         1.0000
    1442        2806316        14.4150         0.9994         0.9999
    1443        2814064        14.4250         1.0008         1.0003
    1444        2816734        14.4350         1.0003         1.0003
    1445        2818322        14.4450         0.9995         1.0000
    1446        2825162        14.4550         1.0006         1.0003
    1447        2828810        14.4650         1.0005         1.0002
    1448        2829419        14.4750         0.9993         0.9997
    1449        2835312        14.4850         1.0000         0.9999
    1450        2840921        14.4950         1.0006         1.0005
    1451        2843975        14.5050         1.0003         1.0003
    1452        2846669        14.5150         0.9999         0.9999
    1453        2850327        14.5250         0.9998         0.9998
    1454        2855020        14.5350         1.0000         0.9999
    1455        2858908        14.5450         1.0000         1.0000
    1456        2863158        14.5550         1.0001         1.0004
    1457        2868528        14.5650         1.0006         0.9999
    1458        2866852        14.5750         0.9987         0.9997
    1459        2875920        14.5850         1.0005         0.9999
    1460        2880636        14.5950         1.0007         1.0007
    1461        2883170        14.6050         1.0002         1.0006
    1462        2888368        14.6150         1.0007         1.0002
    1463        2889419        14.6250         0.9997         1.0001
    1464        2895326        14.6350         1.0003         1.0001
    1465        2899019        14.6450         1.0003         1.0003
    1466        2902509        14.6550         1.0001         1.0003
    1467        2907524        14.6650         1.0005         1.0000
    1468        2908723        14.6750         0.9995         1.0000
    1469        2915580        14.6850         1.0005         1.0002
    1470        2919597        14.6950         1.0005         1.0004
    1471        2920621        14.7050         0.9995         0.9996
    1472        2923270        14.7150         0.9990         0.9990
    1473        2927217        14.7250         0.9990         0.9994
    1474        2934568        14.7350         1.0002         0.9995
    1475        2934301        14.7450         0.9987         0.9994
    1476        2939990        14.7550         0.9993         0.9989
    1477        2943221        14.7650         0.9991         0.9994
    1478        2948816        14.7750         0.9996         0.9993
    1479        2951354        14.7850         0.9991         0.9994
    1480        2957389        14.7950         0.9998         0.9996
    1481        2962209        14.8050         1.0001         1.0004
    1482        2968420        14.8150         1.0008         1.0002
    1483        2967946        14.8250         0.9993         0.9998
    1484        2973123        14.8350         0.9997         0.9999
    1485        2980491        14.8450         1.0008         1.0002
    1486        2980229        14.8550         0.9994         0.9999
    1487        2984649        14.8650         0.9995         0.9993
    1488        2988434        14.8750         0.9995         0.9996
    1489        2993095        14.8850         0.9997         0.9996
    1490        2996600        14.8950         0.9995         0.9997
    1491        3001321        14.9050         0.9997         0.9994
    1492        3002859        14.9150         0.9989         0.9992
    1493        3007775        14.9250         0.9992         0.9992
    1494        3013922        14.9350         0.9999         1.0000
    1495        3019934        14.9450         1.0006         1.0004
    1496        3021999        14.9550         0.9999         0.9998
    1497        3023543        14.9650         0.9991         0.9996
    1498        3031674        14.9750         1.0004         1.0001
    1499        3035264        14.9850         1.0003         1.0001
    1500        3036070        14.9950         0.9992         0.9995
    1501        3041573        15.0050         0.9997         0.9997
    1502        3048553        15.0150         1.0006         1.0005
    1503        3052236        15.0250         1.0005         1.0004
    1504        3053202        15.0350         0.9995         0.9996
    1505        3056239        15.0450         0.9992         0.9996
    1506        3064274        15.0550         1.0005         0.9997
    1507        3063760        15.0650         0.9990         0.9996
    1508        3069712        15.0750         0.9996         0.9993
    1509        3073971        15.0850         0.9996         0.9999
    1510        3079507        15.0950         1.0001         0.9996
    1511        3079015        15.1050         0.9986         0.9991
    1512        3084204        15.1150         0.9990         0.9991
    1513        3091871        15.1250         1.0002         0.9999
    1514        3095752        15.1350         1.0001         1.0001
    1515        3098806        15.1450         0.9998         0.9998
    1516        3102947        15.1550         0.9998         1.0000
    1517        3108871        15.1650         1.0004         0.9999
    1518        3109409        15.1750         0.9992         0.9997
    1519        3114611        15.1850         0.9996         0.9990
    1520        3116557        15.1950         0.9989         0.9997
    1521        3126461        15.2050         1.0007         0.9998
    1522        3125662        15.2150         0.9992         0.9997
    1523        3130409        15.2250         0.9994         0.9994
    1524        3137196        15.2350         1.0002         1.0000
    1525        3141440        15.2450         1.0003         1.0004
    1526        3146161        15.2550         1.0004         1.0002
    1527        3147724        15.2650         0.9996         0.9998
    1528        3151605        15.2750         0.9996         0.9997
    1529        3157193        15.2850         1.0000         0.9996
    1530        3157384        15.2950         0.9988         0.9991
    1531        3161960        15.3050         0.9989         0.9989
    1532        3167987        15.3150         0.9995         0.9995
    1533        3173669        15.3250         1.0000         1.0001
    1534        3178840        15.3350         1.0003         1.0000
    1535        3180617        15.3450         0.9996         1.0003
    1536        3189599        15.3550         1.0011         1.0002
    1537        3188608        15.3650         0.9995         1.0000
    1538        3192375        15.3750         0.9994         0.9992
    1539        3196840        15.3850         0.9995         0.9996
    1540        3202740        15.3950         1.0000         0.9995
    1541        3203745        15.4050         0.9990         0.9996
    1542        3210989        15.4150         1.0000         0.9993
    1543        3212430        15.4250         0.9991         0.9998
    1544        3220811        15.4350         1.0004         0.9999
    1545        3222943        15.4450         0.9998         0.9999
    1546        3225948        15.4550         0.9994         0.9996
    1547        3231806        15.4650         1.0000         0.9999
    1548        3237343        15.4750         1.0004         1.0004
    1549        3242110        15.4850         1.0006         1.0004
    1550        3244595        15.4950         1.0000         1.0003
    1551        3249615        15.5050         1.0003         1.0002
    1552        3253569        15.5150         1.0002         1.0002
    1553        3257665        15.5250         1.0002         1.0003
    1554        3263111        15.5350         1.0006         1.0004
    1555        3265728        15.5450         1.0001         1.0002
    1556        3269666        15.5550         1.0000         1.0003
    1557        3276400        15.5650         1.0008         1.0002
    1558        3277092        15.5750         0.9997         1.0003
    1559        3283694        15.5850         1.0004         0.9999
    1560        3284934        15.5950         0.9995         0.9997
    1561        3288681        15.6050         0.9994         0.9994
    1562        3294254        15.6150         0.9998         0.9999
    1563        3300615        15.6250         1.0004         1.0003
    1564        3303748        15.6350         1.0001         0.9999
    1565        3305143        15.6450         0.9993         0.9998
    1566        3313474        15.6550         1.0005         0.9999
    1567        3315483        15.6650         0.9998         1.0000
    1568        3319422        15.6750         0.9997         0.9998
    1569        3325404        15.6850         1.0003         1.0002
    1570        3329817        15.6950         1.0003         1.0002
    1571        3331833        15.7050         0.9996         0.9998
    1572        3336467        15.7150         0.9998         1.0001
    1573        3344058        15.7250         1.0008         1.0002
    1574        3343250        15.7350         0.9992         0.9993
    1575        3343519        15.7450         0.9981         0.9985
    1576        3352871        15.7550         0.9996         0.9994
    1577        3361125        15.7650         1.0008         1.0007
    1578        3364360        15.7750         1.0005         1.0001
    1579        3362926        15.7850         0.9988         0.9995
    1580        3371455        15.7950         1.0000         0.9997
    1581        3377803        15.8050         1.0007         1.0007
    1582        3382045        15.8150         1.0006         1.0004
    1583        3383119        15.8250         0.9997         1.0001
    1584        3389103        15.8350         1.0002         0.9998
    1585        3392127        15.8450         0.9998         1.0002
    1586        3399151        15.8550         1.0006         1.0004
    1587        3402118        15.8650         1.0002         1.0003
    1588        3404183        15.8750         0.9996         0.9996
    1589        3407344        15.8850         0.9993         0.9995
    1590        3413222        15.8950         0.9997         0.9994
    1591        3415828        15.9050         0.9992         0.9995
    1592        3421506        15.9150         0.9996         0.9995
    1593        3426685        15.9250         0.9999         1.0001
    1594        3433457        15.9350         1.0006         1.0002
    1595        3435583        15.9450         1.0000         1.0004
    1596        3441744        15.9550         1.0005         0.9999
    1597        3441952        15.9650         0.9993         0.9999
    1598        3449815        15.9750         1.0004         1.0000
    1599        3453953        15.9850         1.0003         1.0002
    1600        3456399        15.9950         0.9998         0.9999
    1601        3461579        16.0050         1.0000         1.0000
    1602        3466451        16.0150         1.0002         1.0000
    1603        3468746        16.0250         0.9996         0.9998
    1604        3474066        16.0350         0.9999         0.9999
    1605        3480314        16.0450         1.0004         1.0001
    1606        3482457        16.0550         0.9998         1.0002
    1607        3488774        16.0650         1.0003         1.0000
    1608        3491243        16.0750         0.9998         1.0001
    1609        3497132        16.0850         1.0002         0.9999
    1610        3500455        16.0950         1.0000         1.0004
    1611        3508066        16.1050         1.0009         1.0005
    1612        3510573        16.1150         1.0004         1.0005
    1613        3513597        16.1250         1.0000         1.0001
    1614        3518886        16.1350         1.0002         1.0002
    1615        3523223        16.1450         1.0002         1.0001
    1616        3525979        16.1550         0.9998         1.0001
    1617        3532344        16.1650         1.0003         1.0000
    1618        3534396        16.1750         0.9997         1.0000
    1619        3538399        16.1850         0.9996         0.9991
    1620        3538605        16.1950         0.9984         0.9991
    1621        3548020        16.2050         0.9998         0.9994
    1622        3552605        16.2150         0.9999         0.9999
    1623        3556819        16.2250         0.9998         1.0001
    1624        3563130        16.2350         1.0004         0.9999
    1625        3563960        16.2450         0.9994         0.9999
    1626        3570392        16.2550         1.0000         0.9994
    1627        3571623        16.2650         0.9991         0.9996
    1628        3580115        16.2750         1.0002         0.9999
    1629        3584629        16.2850         1.0002         1.0001
    1630        3587144        16.2950         0.9997         1.0000
    1631        3593884        16.3050         1.0004         1.0003
    1632        3599860        16.3150         1.0008         1.0005
    1633        3601062        16.3250         0.9999         1.0003
    1634        3606643        16.3350         1.0002         0.9999
    1635        3608405        16.3450         0.9995         0.9997
    1636        3612337        16.3550         0.9994         0.9993
    1637        3617360        16.3650         0.9995         0.9996
    1638        3623326        16.3750         1.0000         0.9998
    1639        3628386        16.3850         1.0001         1.0003
    1640        3635523        16.3950         1.0009         1.0008
    1641        3639526        16.4050         1.0008         1.0006
    1642        3639920        16.4150         0.9997         0.9998
    1643        3643248        16.4250         0.9993         0.9995
    1644        3649781        16.4350         0.9999         0.9996
    1645        3652645        16.4450         0.9995         0.9997
    1646        3659312        16.4550         1.0001         1.0002
    1647        3666154        16.4650         1.0007         1.0001
    1648        3664203        16.4750         0.9990         0.9998
    1649        3673380        16.4850         1.0003         0.9998
    1650        3677485        16.4950         1.0002         1.0002
    1651        3679781        16.5050         0.9996         0.9998
    1652        3685174        16.5150         0.9999         0.9998
    1653        3690742        16.5250         1.0002         1.0002
    1654        3695873        16.5350         1.0003         1.0002
    1655        3698637        16.5450         0.9999         1.0001
    1656        3704087        16.5550         1.0001         1.0002
    1657        3709361        16.5650         1.0004         1.0000
    1658        3710430        16.5750         0.9994         0.9999
    1659        3718088        16.5850         1.0003         1.0000
    1660        3723055        16.5950         1.0004         1.0005
    1661        3728180        16.6050         1.0006         1.0007
    1662        3732935        16.6150         1.0007         1.0004
    1663        3733587        16.6250         0.9996         0.9997
    1664        3736679        16.6350         0.9993         0.9995
    1665        3744848        16.6450         1.0002         1.0001
    1666        3751101        16.6550         1.0007         1.0008
    1667        3756075        16.6650         1.0008         1.0007
    1668        3757505        16.6750         1.0000         1.0000
    1669        3759188        16.6850         0.9993         0.9996
    1670        3767630        16.6950         1.0003         1.0001
    1671        3773297        16.7050         1.0006         1.0006
    1672        3777450        16.7150         1.0005         1.0006
    1673        3781468        16.7250         1.0004         1.0002
    1674        3782960        16.7350         0.9996         0.9996
    1675        3786082        16.7450         0.9992         0.9995
    1676        3794355        16.7550         1.0002         0.9997
    1677        3796672        16.7650         0.9996         1.0001
    1678        3804958        16.7750         1.0006         1.0003
    1679        3809472        16.7850         1.0006         1.0008
    1680        3814056        16.7950         1.0006         1.0000
    1681        3811508        16.8050         0.9988         0.9995
    1682        3820361        16.8150         0.9999         0.9996
    1683        3827604        16.8250         1.0006         1.0005
    1684        3831808        16.8350         1.0005         1.0005
    1685        3834885        16.8450         1.0001         1.0001
    1686        3837737        16.8550         0.9997         0.9996
    1687        3842038        16.8650         0.9996         0.9998
    1688        3850374        16.8750         1.0006         1.0004
    1689        3854674        16.8850         1.0005         1.0003
    1690        3856543        16.8950         0.9998         1.0004
    1691        3866114        16.9050         1.0011         1.0005
    1692        3866629        16.9150         1.0001         1.0004
    1693        3870464        16.9250         0.9999         0.9996
    1694        3872630        16.9350         0.9992         0.9997
    1695        3880905        16.9450         1.0002         0.9997
    1696        3883326        16.9550         0.9996         1.0000
    1697        3888571        16.9650         0.9998         0.9994
    1698        3890075        16.9750         0.9990         0.9998
    1699        3901426        16.9850         1.0008         0.9999
    1700        3901813        16.9950         0.9997         1.0004
    1701        3908896        17.0050         1.0003         0.9998
    1702        3909100        17.0150         0.9992         0.9994
    1703        3913794        17.0250         0.9992         0.9995
    1704        3923462        17.0350         1.0005         1.0000
    1705        3925399        17.0450         0.9998         1.0000
    1706        3928543        17.0550         0.9995         0.9997
    1707        3934860        17.0650         0.9999         0.9996
    1708        3937613        17.0750         0.9994         0.9997
    1709        3943278        17.0850         0.9997         0.9995
    1710        3947006        17.0950         0.9995         0.9995
    1711        3952467        17.1050         0.9997         0.9999
    1712        3961729        17.1150         1.0009         1.0005
    1713        3964520        17.1250         1.0004         1.0005
    1714        3966494        17.1350         0.9997         0.9998
    1715        3969402        17.1450         0.9993         0.9992
    1716        3973338        17.1550         0.9991         0.9991
    1717        3980421        17.1650         0.9997         1.0001
    1718        3992003        17.1750         1.0015         1.0008
    1719        3992821        17.1850         1.0005         1.0010
    1720        3996958        17.1950         1.0004         1.0001
    1721        3997722        17.2050         0.9994         0.9996
    1722        4002935        17.2150         0.9995         0.9995
    1723        4009566        17.2250         1.0000         1.0004
    1724        4018953        17.2350         1.0012         1.0005
    1725        4017296        17.2450         0.9996         1.0004
    1726        4025625        17.2550         1.0006         1.0003
    1727        4030429        17.2650         1.0006         1.0005
    1728        4031944        17.2750         0.9998         1.0001
    1729        4036968        17.2850         0.9999         0.9996
    1730        4038764        17.2950         0.9992         0.9996
    1731        4046355        17.3050         0.9999         0.9996
    1732        4049791        17.3150         0.9996         0.9994
    1733        4051596        17.3250         0.9989         0.9996
    1734        4064344        17.3350         1.0009         1.0002
    1735        4067078        17.3450         1.0004         1.0008
    1736        4072355        17.3550         1.0005         1.0002
    1737        4073877        17.3650         0.9998         1.0000
    1738        4079252        17.3750         0.9999         0.9999
    1739        4084394        17.3850         1.0000         0.9999
    1740        4088282        17.3950         0.9998         1.0002
    1741        4096566        17.4050         1.0007         1.0004
    1742        4100018        17.4150         1.0004         1.0006
    1743        4105322        17.4250         1.0006         1.0003
    1744        4108603        17.4350         1.0002         1.0006
    1745        4116645        17.4450         1.0010         1.0006
    1746        4118497        17.4550         1.0003         1.0004
    1747        4120952        17.4650         0.9998         0.9998
    1748        4124612        17.4750         0.9995         0.9995
    1749        4129506        17.4850         0.9996         0.9998
    1750        4137883        17.4950         1.0004         1.0002
    1751        4142332        17.5050         1.0004         1.0004
    1752        4144738        17.5150         0.9998         0.9997
    1753        4146865        17.5250         0.9992         0.9997
    1754        4157706        17.5350         1.0006         1.0000
    1755        4158947        17.5450         0.9998         1.0001
    1756        4162731        17.5550         0.9996         0.9996
    1757        4167456        17.5650         0.9996         0.9996
    1758        4172496        17.5750         0.9996         0.9997
    1759        4178000        17.5850         0.9998         0.9997
    1760        4182834        17.5950         0.9998         1.0001
    1761        4191061        17.6050         1.0007         1.0004
    1762        4193855        17.6150         1.0002         1.0003
    1763        4196373        17.6250         0.9997         0.9998
    1764        4201048        17.6350         0.9996         0.9996
    1765        4205480        17.6450         0.9996         0.9994
    1766        4209753        17.6550         0.9994         0.9999
    1767        4219602        17.6650         1.0007         0.9999
    1768        4218668        17.6750         0.9993         1.0002
    1769        4229913        17.6850         1.0008         1.0002
    1770        4232110        17.6950         1.0002         1.0004
    1771        4234652        17.7050         0.9997         0.9998
    1772        4240368        17.7150         0.9999         0.9998
    1773        4245082        17.7250         0.9999         1.0001
    1774        4252237        17.7350         1.0004         1.0001
    1775        4254334        17.7450         0.9998         1.0002
    1776        4262018        17.7550         1.0005         1.0001
    1777        4264689        17.7650         1.0000         1.0005
    1778        4272576        17.7750         1.0007         0.9999
    1779        4268957        17.7850         0.9987         0.9993
    1780        4275778        17.7950         0.9992         0.9994
    1781        4287923        17.8050         1.0009         1.0004
    1782        4290225        17.8150         1.0003         1.0005
    1783        4293202        17.8250         0.9999         1.0000
    1784        4299840        17.8350         1.0003         1.0006
    1785        4309704        17.8450         1.0015         1.0011
    1786        4311263        17.8550         1.0007         1.0011
    1787        4315605        17.8650         1.0006         1.0004
    1788        4317190        17.8750         0.9999         1.0000
    1789        4320646        17.8850         0.9996         0.9995
    1790        4324647        17.8950         0.9994         0.9996
    1791        4332166        17.9050         1.0000         0.9997
    1792        4335152        17.9150         0.9996         0.9997
    1793        4340565        17.9250         0.9997         0.9997
    1794        4346305        17.9350         0.9999         0.9999
    1795        4352316        17.9450         1.0002         1.0001
    1796        4357018        17.9550         1.0001         1.0002
    1797        4361451        17.9650         1.0000         0.9997
    1798        4362698        17.9750         0.9992         0.9998
    1799        4373481        17.9850         1.0006         0.9999
    1800        4374173        17.9950         0.9996         1.0002
    1801        4381417        18.0050         1.0002         0.9997
    1802        4384127        18.0150         0.9997         1.0001
    1803        4392741        18.0250         1.0005         1.0000
    1804        4393457        18.0350         0.9996         0.9999
    1805        4399807        18.0450         0.9999         0.9999
    1806        4406952        18.0550         1.0004         1.0001
    1807        4408176        18.0650         0.9996         0.9999
    1808        4413370        18.0750         0.9997         0.9995
    1809        4418045        18.0850         0.9996         0.9996
    1810        4424331        18.0950         0.9999         1.0000
    1811        4432989        18.1050         1.0008         1.0007
    1812        4439163        18.1150         1.0011         1.0009
    1813        4441165        18.1250         1.0004         1.0005
    1814        4443981        18.1350         0.9999         1.0001
    1815        4449231        18.1450         1.0000         0.9998
    1816        4450358        18.1550         0.9992         0.9993
    1817        4454625        18.1650         0.9990         0.9990
    1818        4461043        18.1750         0.9994         0.9994
    1819        4469260        18.1850         1.0001         1.0000
    1820        4474974        18.1950         1.0003         1.0002
    1821        4477863        18.2050         0.9998         1.0001
    1822        4484562        18.2150         1.0002         1.0001
    1823        4489071        18.2250         1.0001         1.0002
    1824        4493621        18.2350         1.0001         1.0001
    1825        4498744        18.2450         1.0001         1.0001
    1826        4502560        18.2550         0.9998         0.9996
    1827        4505398        18.2650         0.9994         1.0001
    1828        4519237        18.2750         1.0014         1.0005
    1829        4518329        18.2850         1.0001         1.0005
    1830        4522703        18.2950         0.9999         0.9999
    1831        4528271        18.3050         1.0001         1.0001
    1832        4531940        18.3150         0.9998         0.9994
    1833        4529869        18.3250         0.9982         0.9987
    1834        4538003        18.3350         0.9989         0.9990
    1835        4548437        18.3450         1.0001         0.9996
    1836        4548482        18.3550         0.9991         0.9997
    1837        4556985        18.3650         0.9998         0.9995
    1838        4561929        18.3750         0.9998         1.0000
    1839        4567903        18.3850         1.0001         1.0001
    1840        4573726        18.3950         1.0003         1.0000
    1841        4575237        18.4050         0.9995         0.9998
    1842        4582695        18.4150         1.0000         1.0000
    1843        4590439        18.4250         1.0006         1.0003
    1844        4592555        18.4350         1.0000         1.0004
    1845        4598794        18.4450         1.0003         1.0000
    1846        4600688        18.4550         0.9996         0.9998
    1847        4606025        18.4650         0.9997         0.9996
    1848        4611901        18.4750         0.9999         1.0000
    1849        4618629        18.4850         1.0003         1.0000
    1850        4620949        18.4950         0.9997         1.0000
    1851        4628368        18.5050         1.0002         1.0002
    1852        4635797        18.5150         1.0007         1.0007
    1853        4640522        18.5250         1.0007         1.0006
    1854        4643377        18.5350         1.0002         1.0002
    1855        4646488        18.5450         0.9998         1.0000
    1856        4653177        18.5550         1.0002         0.9997
    1857        4653728        18.5650         0.9992         0.9996
    1858        4661708        18.5750         0.9998         0.9997
    1859        4668336        18.5850         1.0002         1.0000
    1860        4671328        18.5950         0.9997         0.9999
    1861        4677131        18.6050         0.9999         0.9999
    1862        4682790        18.6150         1.0000         1.0001
    1863        4688210        18.6250         1.0001         1.0000
    1864        4692297        18.6350         0.9999         1.0000
    1865        4698086        18.6450         1.0001         1.0000
    1866        4701690        18.6550         0.9998         0.9997
    1867        4706026        18.6650         0.9996         0.9999
    1868        4715925        18.6750         1.0007         1.0004
    1869        4720738        18.6850         1.0006         1.0007
    1870        4725160        18.6950         1.0005         1.0006
    1871        4730748        18.7050         1.0006         1.0002
    1872        4729813        18.7150         0.9993         0.9997
    1873        4736148        18.7250         0.9996         0.9992
    1874        4739582        18.7350         0.9992         0.9997
    1875        4750096        18.7450         1.0004         0.9999
    1876        4752363        18.7550         0.9998         1.0001
    1877        4758515        18.7650         1.0000         1.0001
    1878        4766017        18.7750         1.0005         1.0004
    1879        4770385        18.7850         1.0004         1.0005
    1880        4775421        18.7950         1.0004         1.0003
    1881        4778970        18.8050         1.0001         1.0000
    1882        4781790        18.8150         0.9996         0.9996
    1883        4787435        18.8250         0.9997         0.9999
    1884        4797384        18.8350         1.0007         1.0005
    1885        4802380        18.8450         1.0007         1.0006
    1886        4803253        18.8550         0.9998         0.9999
    1887        4806510        18.8650         0.9994         0.9995
    1888        4813794        18.8750         0.9999         0.9998
    1889        4820802        18.8850         1.0003         1.0004
    1890        4827858        18.8950         1.0007         1.0004
    1891        4829307        18.9050         0.9999         1.0001
    1892        4833283        18.9150         0.9997         0.9995
    1893        4836721        18.9250         0.9993         0.9997
    1894        4845833        18.9350         1.0002         0.9997
    1895        4846890        18.9450         0.9993         0.9996
    1896        4853778        18.9550         0.9997         0.9998
    1897        4863789        18.9650         1.0007         1.0004
    1898        4865994        18.9750         1.0001         1.0001
    1899        4867255        18.9850         0.9993         0.9997
    1900        4877140        18.9950         1.0003         1.0000
    1901        4881597        19.0050         1.0001         1.0002
    1902        4884993        19.0150         0.9998         0.9999
    1903        4889537        19.0250         0.9997         0.9996
    1904        4893832        19.0350         0.9995         0.9998
    1905        4903003        19.0450         1.0003         1.0000
    1906        4905757        19.0550         0.9998         1.0001
    1907        4911270        19.0650         0.9999         0.9998
    1908        4915366        19.0750         0.9997         0.9996
    1909        4918623        19.0850         0.9993         0.9995
    1910        4926620        19.0950         0.9999         0.9997
    1911        4930920        19.1050         0.9997         0.9995
    1912        4932719        19.1150         0.9990         0.9996
    1913        4945206        19.1250         1.0005         0.9999
    1914        4946569        19.1350         0.9997         1.0001
    1915        4951209        19.1450         0.9996         0.9995
    1916        4955386        19.1550         0.9994         0.9996
    1917        4963680        19.1650         1.0001         0.9998
    1918        4968082        19.1750         0.9999         1.0000
    1919        4973812        19.1850         1.0000         0.9998
    1920        4977388        19.1950         0.9997         0.9999
    1921        4985571        19.2050         1.0003         1.0002
    1922        4991308        19.2150         1.0004         1.0003
    1923        4993992        19.2250         0.9999         0.9999
    1924        4997447        19.2350         0.9995         0.9997
    1925        5003986        19.2450         0.9998         0.9994
    1926        5005246        19.2550         0.9990         0.9997
    1927        5018126        19.2650         1.0006         1.0001
    1928        5022633        19.2750         1.0004         1.0004
    1929        5024218        19.2850         0.9997         0.9999
    1930        5031609        19.2950         1.0001         1.0001
    1931        5038832        19.3050         1.0005         1.0003
    1932        5040767        19.3150         0.9999         0.9999
    1933        5043994        19.3250         0.9995         0.9997
    1934        5051677        19.3350         1.0000         0.9997
    1935        5056115        19.3450         0.9998         1.0000
    1936        5063092        19.3550         1.0002         0.9999
    1937        5065622        19.3650         0.9996         0.9999
    1938        5073559        19.3750         1.0002         1.0000
    1939        5078588        19.3850         1.0001         0.9998
    1940        5079684        19.3950         0.9993         0.9999
    1941        5091928        19.4050         1.0007         1.0001
    1942        5093322        19.4150         0.9999         1.0001
    1943        5097617        19.4250         0.9997         0.9999
    1944        5106043        19.4350         1.0004         1.0000
    1945        5107065        19.4450         0.9995         0.9996
    1946        5110195        19.4550         0.9991         0.9994
    1947        5119664        19.4650         0.9999         0.9995
    1948        5122380        19.4750         0.9994         0.9999
    1949        5132932        19.4850         1.0005         1.0002
    1950        5137959        19.4950         1.0004         1.0003
    1951        5139969        19.5050         0.9998         1.0001
    1952        5147699        19.5150         1.0003         1.0001
    1953        5153993        19.5250         1.0005         1.0006
    1954        5161020        19.5350         1.0008         1.0007
    1955        5165213        19.5450         1.0006         1.0006
    1956        5168859        19.5550         1.0003         1.0003
    1957        5173472        19.5650         1.0001         1.0001
    1958        5177701        19.5750         0.9999         1.0001
    1959        5185217        19.5850         1.0004         1.0002
    1960        5190144        19.5950         1.0003         1.0004
    1961        5195946        19.6050         1.0004         1.0002
    1962        5198414        19.6150         0.9998         1.0002
    1963        5206158        19.6250         1.0003         1.0000
    1964        5208121        19.6350         0.9997         0.9998
    1965        5212980        19.6450         0.9996         0.9996
    1966        5219783        19.6550         0.9999         0.9999
    1967        5227162        19.6650         1.0003         1.0001
    1968        5231787        19.6750         1.0001         1.0004
    1969        5240504        19.6850         1.0008         1.0004
    1970        5241049        19.6950         0.9999         1.0001
    1971        5245066        19.7050         0.9996         0.9996
    1972        5251200        19.7150         0.9998         0.9999
    1973        5259377        19.7250         1.0003         1.0001
    1974        5263901        19.7350         1.0002         1.0003
    1975        5271805        19.7450         1.0007         1.0007
    1976        5279049        19.7550         1.0010         1.0005
    1977        5275619        19.7650         0.9994         0.9999
    1978        5283097        19.7750         0.9998         0.9994
    1979        5287624        19.7850         0.9996         1.0000
    1980        5297665        19.7950         1.0005         1.0000
    1981        5299426        19.8050         0.9998         1.0001
    1982        5306144        19.8150         1.0001         1.0002
    1983        5314603        19.8250         1.0007         1.0003
    1984        5314617        19.8350         0.9996         0.9999
    1985        5319339        19.8450         0.9995         0.9997
    1986        5327757        19.8550         1.0001         0.9997
    1987        5329900        19.8650         0.9995         0.9999
    1988        5339258        19.8750         1.0002         0.9999
    1989        5342743        19.8850         0.9999         0.9999
    1990        5346715        19.8950         0.9996         0.9998
    1991        5355823        19.9050         1.0003         1.0003
    1992        5362053        19.9150         1.0005         1.0002
    1993        5361539        19.9250         0.9994         0.9998
    1994        5369244        19.9350         0.9998         0.9996
    1995        5374632        19.9450         0.9998         0.9997
    1996        5377733        19.9550         0.9994         0.9998
    1997        5388643        19.9650         1.0004         0.9999
    1998        5391575        19.9750         1.0000         1.0004
    1999        5399959        19.9850         1.0005         1.0001
    2000        5401032        19.9950         0.9997         0.9998
    2001        5404974        20.0050         0.9994         0.9996
    2002        5413567        20.0150         1.0000         1.0000
    2003        5421351        20.0250         1.0005         1.0003
    2004        5424740        20.0350         1.0001         1.0001
    2005        5428415        20.0450         0.9998         0.9999
    2006        5436877        20.0550         1.0003         1.0003
    2007        5443107        20.0650         1.0005         1.0003
    2008        5444616        20.0750         0.9998         0.9999
    2009        5449320        20.0850         0.9996         0.9996
    2010        5456833        20.0950         1.0000         1.0001
    2011        5466062        20.1050         1.0007         1.0006
    2012        5471244        20.1150         1.0007         1.0004
    2013        5470387        20.1250         0.9995         0.9999
    2014        5479009        20.1350         1.0001         0.9999
    2015        5485573        20.1450         1.0003         1.0003
    2016        5490576        20.1550         1.0002         1.0002
    2017        5494443        20.1650         0.9999         0.9999
    2018        5498899        20.1750         0.9997         1.0000
    2019        5508634        20.1850         1.0005         1.0004
    2020        5513827        20.1950         1.0005         1.0003
    2021        5515107        20.2050         0.9997         1.0001
    2022        5523677        20.2150         1.0003         1.0000
    2023        5527081        20.2250         0.9999         0.9999
    2024        5530690        20.2350         0.9996         0.9998
    2025        5539578        20.2450         1.0002         1.0002
    2026        5546704        20.2550         1.0005         1.0002
    2027        5547067        20.2650         0.9996         1.0000
    2028        5556345        20.2750         1.0002         0.9999
    2029        5559627        20.2850         0.9998         1.0000
    2030        5566013        20.2950         1.0000         1.0002
    2031        5575264        20.3050         1.0007         1.0001
    2032        5572580        20.3150         0.9992         0.9998
    2033        5581434        20.3250         0.9998         0.9995
    2034        5587333        20.3350         0.9999         1.0000
    2035        5593725        20.3450         1.0001         1.0001
    2036        5598798        20.3550         1.0000         0.9998
    2037        5600276        20.3650         0.9993         0.9996
    2038        5609476        20.3750         0.9999         0.9996
    2039        5613947        20.3850         0.9997         0.9999
    2040        5620754        20.3950         1.0000         0.9999
    2041        5626597        20.4050         1.0000         1.0000
    2042        5632391        20.4150         1.0001         1.0002
    2043        5639700        20.4250         1.0004         1.0002
    2044        5643586        20.4350         1.0001         1.0002
    2045        5649676        20.4450         1.0002         1.0002
    2046        5655765        20.4550         1.0003         1.0001
    2047        5656744        20.4650         0.9995         0.9997
    2048        5663841        20.4750         0.9998         0.9999
    2049        5675851        20.4850         1.0009         1.0007
    2050        5680044        20.4950         1.0007         1.0007
    2051        5681009        20.5050         0.9999         1.0000
    2052        5684626        20.5150         0.9995         0.9996
    2053        5691527        20.5250         0.9998         0.9996
    2054        5697036        20.5350         0.9998         1.0000
    2055        5705801        20.5450         1.0003         0.9998
    2056        5705171        20.5550         0.9992         0.9998
    2057        5715902        20.5650         1.0002         0.9998
    2058        5721664        20.5750         1.0002         1.0002
    2059        5726543        20.5850         1.0001         1.0001
    2060        5732596        20.5950         1.0002         1.0003
    2061        5740792        20.6050         1.0006         1.0004
    2062        5743658        20.6150         1.0001         1.0001
    2063        5745974        20.6250         0.9996         0.9999
    2064        5755325        20.6350         1.0002         1.0000
    2065        5760506        20.6450         1.0002         1.0001
    2066        5765413        20.6550         1.0000         1.0003
    2067        5775795        20.6650         1.0009         1.0005
    2068        5778322        20.6750         1.0003         1.0006
    2069        5783272        20.6850         1.0002         0.9999
    2070        5783090        20.6950         0.9992         0.9996
    2071        5792353        20.7050         0.9999         0.9996
    2072        5798660        20.7150         1.0000         1.0002
    2073        5806697        20.7250         1.0004         1.0002
    2074        5810012        20.7350         1.0000         1.0002
    2075        5815938        20.7450         1.0001         0.9999
    2076        5818699        20.7550         0.9996         0.9996
    2077        5823729        20.7650         0.9995         0.9997
    2078        5832285        20.7750         1.0000         0.9997
    2079        5833022        20.7850         0.9992         0.9992
    2080        5836999        20.7950         0.9989         0.9994
    2081        5851899        20.8050         1.0005         0.9998
    2082        5852411        20.8150         0.9996         0.9999
    2083        5859358        20.8250         0.9998         0.9999
    2084        5869057        20.8350         1.0005         1.0002
    2085        5873070        20.8450         1.0002         1.0005
    2086        5880859        20.8550         1.0006         1.0004
    2087        5883927        20.8650         1.0002         1.0001
    2088        5885610        20.8750         0.9995         0.9997
    2089        5893676        20.8850         0.9999         0.9997
    2090        5898043        20.8950         0.9997         0.9998
    2091        5905558        20.9050         1.0000         1.0000
    2092        5913396        20.9150         1.0004         1.0003
    2093        5918057        20.9250         1.0002         1.0002
    2094        5921736        20.9350         0.9999         0.9999
    2095        5927089        20.9450         0.9998         1.0000
    2096        5934615        20.9550         1.0001         0.9997
    2097        5933835        20.9650         0.9990         0.9994
    2098        5942128        20.9750         0.9995         0.9993
    2099        5948894        20.9850         0.9997         0.9995
    2100        5954491        20.9950         0.9997         1.0001
    2101        5967953        21.0050         1.0010         1.0004
    2102        5967842        21.0150         1.0000         1.0003
    2103        5972628        21.0250         0.9998         0.9999
    2104        5980642        21.0350         1.0002         1.0000
    2105        5983772        21.0450         0.9998         1.0000
    2106        5990071        21.0550         0.9999         0.9999
    2107        5996119        21.0650         1.0000         0.9999
    2108        6001755        21.0750         1.0000         1.0000
    2109        6009764        21.0850         1.0003         1.0003
    2110        6018075        21.0950         1.0008         1.0008
    2111        6024670        21.1050         1.0009         1.0006
    2112        6022488        21.1150         0.9996         1.0000
    2113        6030525        21.1250         1.0000         0.9999
    2114        6038761        21.1350         1.0004         1.0003
    2115        6043591        21.1450         1.0003         1.0004
    2116        6050606        21.1550         1.0005         1.0002
    2117        6052999        21.1650         0.9999         1.0003
    2118        6062076        21.1750         1.0005         1.0003
    2119        6065455        21.1850         1.0001         1.0000
    2120        6065884        21.1950         0.9992         0.9996
    2121        6074817        21.2050         0.9998         0.9996
    2122        6080764        21.2150         0.9998         0.9998
    2123        6086476        21.2250         0.9998         0.9999
    2124        6093151        21.2350         0.9999         0.9997
    2125        6094627        21.2450         0.9992         0.9996
    2126        6103464        21.2550         0.9998         0.9996
    2127        6110368        21.2650         0.9999         0.9998
    2128        6113619        21.2750         0.9995         0.9996
    2129        6118306        21.2850         0.9994         0.9993
    2130        6123458        21.2950         0.9993         0.9996
    2131        6135086        21.3050         1.0002         0.9997
    2132        6135191        21.3150         0.9993         0.9996
    2133        6142547        21.3250         0.9996         0.9995
    2134        6151050        21.3350         1.0000         1.0000
    2135        6157135        21.3450         1.0001         1.0000
    2136        6160500        21.3550         0.9997         0.9999
    2137        6168275        21.3650         1.0000         0.9999
    2138        6173830        21.3750         1.0000         0.9998
    2139        6177680        21.3850         0.9996         1.0000
    2140        6188199        21.3950         1.0004         0.9999
    2141        6188305        21.4050         0.9995         0.9998
    2142        6195229        21.4150         0.9997         0.9997
    2143        6205286        21.4250         1.0004         1.0002
    2144        6210231        21.4350         1.0002         1.0001
    2145        6212542        21.4450         0.9997         1.0002
    2146        6226534        21.4550         1.0010         1.0004
    2147        6225176        21.4650         0.9998         0.9999
    2148        6226024        21.4750         0.9990         0.9994
    2149        6239495        21.4850         1.0003         1.0000
    2150        6247911        21.4950         1.0007         1.0007
    2151        6251519        21.5050         1.0003         1.0002
    2152        6251961        21.5150         0.9995         0.9999
    2153        6262147        21.5250         1.0002         0.9999
    2154        6267492        21.5350         1.0001         1.0002
    2155        6273736        21.5450         1.0002         1.0001
    2156        6277948        21.5550         0.9999         1.0000
    2157        6284578        21.5650         1.0000         0.9998
    2158        6287714        21.5750         0.9996         0.9998
    2159        6297167        21.5850         1.0002         1.0003
    2160        6308343        21.5950         1.0010         1.0007
    2161        6310218        21.6050         1.0004         1.0007
    2162        6316925        21.6150         1.0005         1.0003
    2163        6319760        21.6250         1.0001         1.0003
    2164        6327309        21.6350         1.0003         1.0000
    2165        6329451        21.6450         0.9997         1.0001
    2166        6339176        21.6550         1.0004         1.0000
    2167        6343300        21.6650         1.0001         1.0004
    2168        6352659        21.6750         1.0006         1.0003
    2169        6353993        21.6850         0.9999         1.0000
    2170        6356831        21.6950         0.9994         0.9996
    2171        6365816        21.7050         0.9999         0.9998
    2172        6371825        21.7150         1.0000         0.9999
    2173        6375711        21.7250         0.9996         0.9998
    2174        6382670        21.7350         0.9998         0.9996
    2175        6387147        21.7450         0.9996         0.9999
    2176        6396342        21.7550         1.0001         0.9997
    2177        6397141        21.7650         0.9993         0.9998
    2178        6409333        21.7750         1.0003         1.0000
    2179        6414466        21.7850         1.0002         1.0001
    2180        6416745        21.7950         0.9996         0.9999
    2181        6425553        21.8050         1.0001         1.0000
    2182        6431988        21.8150         1.0002         1.0002
    2183        6437052        21.8250         1.0000         1.0000
    2184        6440530        21.8350         0.9997         0.9997
    2185        6446405        21.8450         0.9997         0.9999
    2186        6458539        21.8550         1.0006         1.0001
    2187        6459185        21.8650         0.9998         1.0002
    2188        6466633        21.8750         1.0000         0.9998
    2189        6470904        21.8850         0.9998         1.0000
    2190        6480357        21.8950         1.0003         1.0002
    2191        6485407        21.9050         1.0002         1.0000
    2192        6485821        21.9150         0.9994         0.9998
    2193        6497541        21.9250         1.0002         1.0000
    2194        6504004        21.9350         1.0003         1.0003
    2195        6508671        21.9450         1.0001         1.0003
    2196        6514813        21.9550         1.0002         0.9999
    2197        6515239        21.9650         0.9993         0.9997
    2198        6526154        21.9750         1.0001         1.0000
    2199        6534873        21.9850         1.0005         1.0004
    2200        6536240        21.9950         0.9998         0.9997
    2201        6536127        22.0050         0.9989         0.9992
    2202        6547186        22.0150         0.9997         0.9995
    2203        6555493        22.0250         1.0000         1.0000
    2204        6561565        22.0350         1.0000         1.0002
    2205        6569397        22.0450         1.0003         1.0001
    2206        6572556        22.0550         0.9999         1.0000
    2207        6578484        22.0650         0.9999         1.0000
    2208        6587673        22.0750         1.0004         1.0003
    2209        6594139        22.0850         1.0005         1.0003
    2210        6595386        22.0950         0.9997         1.0000
    2211        6604211        22.1050         1.0002         1.0000
    2212        6610493        22.1150         1.0002         1.0004
    2213        6617995        22.1250         1.0005         1.0001
    2214        6617548        22.1350         0.9995         0.9998
    2215        6625534        22.1450         0.9998         0.9998
    2216        6634285        22.1550         1.0002         1.0000
    2217        6638188        22.1650         0.9999         1.0000
    2218        6644944        22.1750         1.0000         1.0001
    2219        6652885        22.1850         1.0003         1.0000
    2220        6653865        22.1950         0.9995         0.9999
    2221        6661888        22.2050         0.9998         0.9995
    2222        6664222        22.2150         0.9993         0.9997
    2223        6676814        22.2250         1.0003         1.0001
    2224        6682562        22.2350         1.0002         1.0001
    2225        6682439        22.2450         0.9993         0.9994
    2226        6689101        22.2550         0.9994         0.9998
    2227        6705928        22.2650         1.0010         1.0005
    2228        6706296        22.2750         1.0002         1.0003
    2229        6708887        22.2850         0.9997         1.0000
    2230        6722274        22.2950         1.0008         1.0005
    2231        6726750        22.3050         1.0006         1.0005
    2232        6726954        22.3150         0.9997         0.9999
    2233        6732984        22.3250         0.9997         0.9996
    2234        6739890        22.3350         0.9998         1.0000
    2235        6751011        22.3450         1.0006         1.0002
    2236        6751406        22.3550         0.9997         1.0000
    2237        6757675        22.3650         0.9998         0.9996
    2238        6763523        22.3750         0.9997         1.0000
    2239        6774705        22.3850         1.0005         1.0001
    2240        6775120        22.3950         0.9997         1.0000
    2241        6783577        22.4050         1.0000         1.0000
    2242        6792676        22.4150         1.0005         1.0005
    2243        6799787        22.4250         1.0006         1.0005
    2244        6802025        22.4350         1.0001         1.0002
    2245        6807185        22.4450         0.9999         0.9998
    2246        6811272        22.4550         0.9996         0.9999
    2247        6821326        22.4650         1.0002         0.9999
    2248        6825443        22.4750         0.9999         1.0003
    2249        6834688        22.4850         1.0004         0.9998
    2250        6831230        22.4950         0.9990         0.9998
    2251        6847463        22.5050         1.0005         0.9999
    2252        6852395        22.5150         1.0003         1.0005
    2253        6859031        22.5250         1.0004         1.0003
    2254        6862787        22.5350         1.0001         1.0000
    2255        6866471        22.5450         0.9997         1.0000
    2256        6877485        22.5550         1.0004         1.0001
    2257        6881953        22.5650         1.0002         1.0002
    2258        6888114        22.5750         1.0002         1.0004
    2259        6899059        22.5850         1.0009         1.0005
    2260        6897867        22.5950         0.9998         1.0000
    2261        6900410        22.6050         0.9993         0.9996
    2262        6912060        22.6150         1.0001         0.9997
    2263        6914583        22.6250         0.9996         0.9999
    2264        6923248        22.6350         1.0000         0.9998
    2265        6927877        22.6450         0.9998         0.9998
    2266        6933694        22.6550         0.9997         0.9997
    2267        6941082        22.6650         0.9999         1.0000
    2268        6949542        22.6750         1.0002         1.0001
    2269        6953610        22.6850         0.9999         1.0000
    2270        6959478        22.6950         0.9999         1.0001
    2271        6969757        22.7050         1.0005         1.0001
    2272        6969670        22.7150         0.9996         0.9997
    2273        6973400        22.7250         0.9993         0.9995
    2274        6985686        22.7350         1.0001         0.9998
    2275        6988711        22.7450         0.9997         0.9998
    2276        6993025        22.7550         0.9994         0.9993
    2277        6997207        22.7650         0.9991         0.9994
    2278        7009987        22.7750         1.0001         1.0000
    2279        7017997        22.7850         1.0004         1.0000
    2280        7016501        22.7950         0.9993         0.9998
    2281        7028221        22.8050         1.0001         0.9996
    2282        7030593        22.8150         0.9995         0.9999
    2283        7038208        22.8250         0.9997         0.9993
    2284        7038030        22.8350         0.9988         0.9993
    2285        7050563        22.8450         0.9997         0.9993
    2286        7056467        22.8550         0.9997         1.0001
    2287        7070014        22.8650         1.0007         1.0001
    2288        7067820        22.8750         0.9995         1.0001
    2289        7077619        22.8850         1.0001         0.9996
    2290        7078205        22.8950         0.9993         0.9996
    2291        7088724        22.9050         0.9999         0.9998
    2292        7097520        22.9150         1.0002         1.0002
    2293        7103210        22.9250         1.0002         1.0004
    2294        7111885        22.9350         1.0005         1.0003
    2295        7114157        22.9450         1.0000         1.0002
    2296        7121286        22.9550         1.0001         1.0000
    2297        7127924        22.9650         1.0002         1.0002
    2298        7135201        22.9750         1.0003         1.0003
    2299        7141133        22.9850         1.0003         1.0000
    2300        7142120        22.9950         0.9995         1.0000
    2301        7154339        23.0050         1.0004         1.0000
    2302        7158419        23.0150         1.0001         1.0003
    2303        7164756        23.0250         1.0001         0.9999
    2304        7167674        23.0350         0.9996         1.0000
    2305        7178846        23.0450         1.0003         1.0000
    2306        7182032        23.0550         0.9999         0.9999
    2307        7185892        23.0650         0.9996         0.9998
    2308        7198016        23.0750         1.0004         1.0001
    2309        7202740        23.0850         1.0002         1.0002
    2310        7206102        23.0950         0.9998         0.9999
    2311        7212599        23.1050         0.9998         0.9997
    2312        7219140        23.1150         0.9999         1.0000
    2313        7229631        23.1250         1.0004         1.0002
    2314        7234011        23.1350         1.0002         1.0003
    2315        7240238        23.1450         1.0002         1.0000
    2316        7243040        23.1550         0.9997         0.9998
    2317        7249583        23.1650         0.9997         0.9996
    2318        7254690        23.1750         0.9996         0.9998
    2319        7264725        23.1850         1.0001         0.9999
    2320        7268710        23.1950         0.9998         0.9999
    2321        7276578        23.2050         1.0000         1.0000
    2322        7284822        23.2150         1.0003         1.0001
    2323        7289387        23.2250         1.0000         1.0003
    2324        7298239        23.2350         1.0004         0.9999
    2325        7296405        23.2450         0.9993         0.9998
    2326        7308410        23.2550         1.0001         0.9998
    2327        7315313        23.2650         1.0001         1.0001
    2328        7319232        23.2750         0.9998         0.9999
    2329        7325600        23.2850         0.9998         1.0000
    2330        7335885        23.2950         1.0004         1.0001
    2331        7338012        23.3050         0.9998         1.0000
    2332        7346250        23.3150         1.0001         1.0003
    2333        7359160        23.3250         1.0010         1.0002
    2334        7352096        23.3350         0.9992         0.9999
    2335        7364385        23.3450         1.0000         0.9996
    2336        7372589        23.3550         1.0002         1.0003
    2337        7381843        23.3650         1.0006         1.0006
    2338        7389990        23.3750         1.0009         1.0009
