
     ######################################################################
   ##########################################################################
  ###                                                                      ###
 ###            Tinker  ---  Software Tools for Molecular Design            ###
 ##                                                                          ##
 ##                      Version 8.10.2   February 2022                      ##
 ##                                                                          ##
 ##               Copyright (c)  Jay William Ponder  1990-2022               ##
 ###                           All Rights Reserved                          ###
  ###                                                                      ###
   ##########################################################################
     ######################################################################


 Number of Coordinate Frames :           401
 Number of Distance Bins :              2338

 Reading the Coordinates Archive File :

    Processing Coordinate Frame          100
    Processing Coordinate Frame          200
    Processing Coordinate Frame          300
    Processing Coordinate Frame          400
    Processing Coordinate Frame          401

 Pairwise Radial Distribution Function :

       First Name or Type :  2          Second Name or Type :  1     

     Bin         Counts       Distance       Raw g(r)    Smooth g(r)

       1              0         0.0050         0.0000         0.0000
       2              0         0.0150         0.0000         0.0000
       3              0         0.0250         0.0000         0.0000
       4              0         0.0350         0.0000         0.0000
       5              0         0.0450         0.0000         0.0000
       6              0         0.0550         0.0000         0.0000
       7              0         0.0650         0.0000         0.0000
       8              0         0.0750         0.0000         0.0000
       9              0         0.0850         0.0000         0.0000
      10              0         0.0950         0.0000         0.0000
      11              0         0.1050         0.0000         0.0000
      12              0         0.1150         0.0000         0.0000
      13              0         0.1250         0.0000         0.0000
      14              0         0.1350         0.0000         0.0000
      15              0         0.1450         0.0000         0.0000
      16              0         0.1550         0.0000         0.0000
      17              0         0.1650         0.0000         0.0000
      18              0         0.1750         0.0000         0.0000
      19              0         0.1850         0.0000         0.0000
      20              0         0.1950         0.0000         0.0000
      21              0         0.2050         0.0000         0.0000
      22              0         0.2150         0.0000         0.0000
      23              0         0.2250         0.0000         0.0000
      24              0         0.2350         0.0000         0.0000
      25              0         0.2450         0.0000         0.0000
      26              0         0.2550         0.0000         0.0000
      27              0         0.2650         0.0000         0.0000
      28              0         0.2750         0.0000         0.0000
      29              0         0.2850         0.0000         0.0000
      30              0         0.2950         0.0000         0.0000
      31              0         0.3050         0.0000         0.0000
      32              0         0.3150         0.0000         0.0000
      33              0         0.3250         0.0000         0.0000
      34              0         0.3350         0.0000         0.0000
      35              0         0.3450         0.0000         0.0000
      36              0         0.3550         0.0000         0.0000
      37              0         0.3650         0.0000         0.0000
      38              0         0.3750         0.0000         0.0000
      39              0         0.3850         0.0000         0.0000
      40              0         0.3950         0.0000         0.0000
      41              0         0.4050         0.0000         0.0000
      42              0         0.4150         0.0000         0.0000
      43              0         0.4250         0.0000         0.0000
      44              0         0.4350         0.0000         0.0000
      45              0         0.4450         0.0000         0.0000
      46              0         0.4550         0.0000         0.0000
      47              0         0.4650         0.0000         0.0000
      48              0         0.4750         0.0000         0.0000
      49              0         0.4850         0.0000         0.0000
      50              0         0.4950         0.0000         0.0000
      51              0         0.5050         0.0000         0.0000
      52              0         0.5150         0.0000         0.0000
      53              0         0.5250         0.0000         0.0000
      54              0         0.5350         0.0000         0.0000
      55              0         0.5450         0.0000         0.0000
      56              0         0.5550         0.0000         0.0000
      57              0         0.5650         0.0000         0.0000
      58              0         0.5750         0.0000         0.0000
      59              0         0.5850         0.0000         0.0000
      60              0         0.5950         0.0000         0.0000
      61              0         0.6050         0.0000         0.0000
      62              0         0.6150         0.0000         0.0000
      63              0         0.6250         0.0000         0.0000
      64              0         0.6350         0.0000         0.0000
      65              0         0.6450         0.0000         0.0000
      66              0         0.6550         0.0000         0.0000
      67              0         0.6650         0.0000         0.0000
      68              0         0.6750         0.0000         0.0000
      69              0         0.6850         0.0000         0.0000
      70              0         0.6950         0.0000         0.0000
      71              0         0.7050         0.0000         0.0000
      72              0         0.7150         0.0000         0.0000
      73              0         0.7250         0.0000         0.0000
      74              0         0.7350         0.0000         0.0000
      75              0         0.7450         0.0000         0.0000
      76              0         0.7550         0.0000         0.0000
      77              0         0.7650         0.0000         0.0000
      78              0         0.7750         0.0000         0.0000
      79              0         0.7850         0.0000         0.0000
      80              0         0.7950         0.0000         0.0000
      81              0         0.8050         0.0000         0.0000
      82              0         0.8150         0.0000         0.0000
      83              0         0.8250         0.0000         0.0000
      84              0         0.8350         0.0000         0.0000
      85              0         0.8450         0.0000         0.0000
      86              0         0.8550         0.0000         0.0000
      87              0         0.8650         0.0000         0.0000
      88              0         0.8750         0.0000         0.0000
      89              0         0.8850         0.0000         0.0000
      90              0         0.8950         0.0000         0.0000
      91              0         0.9050         0.0000         0.0000
      92              0         0.9150         0.0000         0.0000
      93              0         0.9250         0.0000         0.0000
      94              0         0.9350         0.0000         0.0000
      95              0         0.9450         0.0000         0.0000
      96              0         0.9550         0.0000         0.0000
      97              0         0.9650         0.0000         0.0000
      98              0         0.9750         0.0000         0.0000
      99              0         0.9850         0.0000         0.0000
     100              0         0.9950         0.0000         0.0000
     101              0         1.0050         0.0000         0.0000
     102              0         1.0150         0.0000         0.0000
     103              0         1.0250         0.0000         0.0000
     104              0         1.0350         0.0000         0.0000
     105              0         1.0450         0.0000         0.0000
     106              0         1.0550         0.0000         0.0000
     107              0         1.0650         0.0000         0.0000
     108              0         1.0750         0.0000         0.0000
     109              0         1.0850         0.0000         0.0000
     110              0         1.0950         0.0000         0.0000
     111              0         1.1050         0.0000         0.0000
     112              0         1.1150         0.0000         0.0000
     113              0         1.1250         0.0000         0.0000
     114              0         1.1350         0.0000         0.0000
     115              0         1.1450         0.0000         0.0000
     116              0         1.1550         0.0000         0.0000
     117              0         1.1650         0.0000         0.0000
     118              0         1.1750         0.0000         0.0000
     119              0         1.1850         0.0000         0.0000
     120              0         1.1950         0.0000         0.0000
     121              0         1.2050         0.0000         0.0000
     122              0         1.2150         0.0000         0.0000
     123              0         1.2250         0.0000         0.0000
     124              0         1.2350         0.0000         0.0000
     125              0         1.2450         0.0000         0.0000
     126              0         1.2550         0.0000         0.0000
     127              0         1.2650         0.0000         0.0000
     128              0         1.2750         0.0000         0.0000
     129              0         1.2850         0.0000         0.0000
     130              0         1.2950         0.0000         0.0000
     131              0         1.3050         0.0000         0.0000
     132              0         1.3150         0.0000         0.0000
     133              0         1.3250         0.0000         0.0000
     134              0         1.3350         0.0000         0.0000
     135              0         1.3450         0.0000         0.0000
     136              0         1.3550         0.0000         0.0000
     137              0         1.3650         0.0000         0.0000
     138              0         1.3750         0.0000         0.0000
     139              0         1.3850         0.0000         0.0000
     140              0         1.3950         0.0000         0.0000
     141              0         1.4050         0.0000         0.0000
     142              0         1.4150         0.0000         0.0000
     143              0         1.4250         0.0000         0.0000
     144              0         1.4350         0.0000         0.0000
     145              0         1.4450         0.0000         0.0000
     146              0         1.4550         0.0000         0.0000
     147              0         1.4650         0.0000         0.0000
     148              3         1.4750         0.0001         0.0000
     149              1         1.4850         0.0000         0.0001
     150              5         1.4950         0.0002         0.0002
     151             12         1.5050         0.0004         0.0003
     152             17         1.5150         0.0005         0.0006
     153             37         1.5250         0.0012         0.0010
     154             57         1.5350         0.0018         0.0019
     155            114         1.5450         0.0035         0.0035
     156            216         1.5550         0.0066         0.0069
     157            377         1.5650         0.0114         0.0107
     158            510         1.5750         0.0152         0.0157
     159            793         1.5850         0.0234         0.0235
     160           1223         1.5950         0.0356         0.0352
     161           1754         1.6050         0.0504         0.0502
     162           2482         1.6150         0.0704         0.0714
     163           3577         1.6250         0.1002         0.0994
     164           4798         1.6350         0.1328         0.1326
     165           6246         1.6450         0.1708         0.1714
     166           8116         1.6550         0.2193         0.2193
     167          10349         1.6650         0.2763         0.2761
     168          12860         1.6750         0.3392         0.3386
     169          15620         1.6850         0.4071         0.4086
     170          18846         1.6950         0.4854         0.4830
     171          22097         1.7050         0.5625         0.5659
     172          26011         1.7150         0.6544         0.6508
     173          29665         1.7250         0.7377         0.7407
     174          33804         1.7350         0.8310         0.8284
     175          37779         1.7450         0.9181         0.9218
     176          42194         1.7550         1.0138         1.0095
     177          45875         1.7650         1.0897         1.0928
     178          49724         1.7750         1.1679         1.1662
     179          53149         1.7850         1.2344         1.2357
     180          56406         1.7950         1.2955         1.2931
     181          59079         1.8050         1.3419         1.3448
     182          61960         1.8150         1.3919         1.3911
     183          64342         1.8250         1.4296         1.4273
     184          65903         1.8350         1.4483         1.4518
     185          67532         1.8450         1.4681         1.4637
     186          68264         1.8550         1.4681         1.4727
     187          69477         1.8650         1.4782         1.4771
     188          70028         1.8750         1.4740         1.4700
     189          69317         1.8850         1.4436         1.4478
     190          69024         1.8950         1.4224         1.4197
     191          68523         1.9050         1.3973         1.4027
     192          68692         1.9150         1.3861         1.3801
     193          67274         1.9250         1.3435         1.3444
     194          65471         1.9350         1.2940         1.2952
     195          63977         1.9450         1.2515         1.2528
     196          62760         1.9550         1.2151         1.2121
     197          60981         1.9650         1.1687         1.1721
     198          59661         1.9750         1.1319         1.1291
     199          57784         1.9850         1.0852         1.0868
     200          56035         1.9950         1.0419         1.0412
     201          54145         2.0050         0.9967         0.9970
     202          52247         2.0150         0.9522         0.9517
     203          50281         2.0250         0.9074         0.9083
     204          48509         2.0350         0.8668         0.8657
     205          46614         2.0450         0.8248         0.8263
     206          45035         2.0550         0.7892         0.7875
     207          43220         2.0650         0.7500         0.7515
     208          41700         2.0750         0.7167         0.7152
     209          40006         2.0850         0.6810         0.6823
     210          38664         2.0950         0.6519         0.6520
     211          37348         2.1050         0.6237         0.6220
     212          35616         2.1150         0.5892         0.5906
     213          34270         2.1250         0.5616         0.5620
     214          33170         2.1350         0.5385         0.5377
     215          31853         2.1450         0.5123         0.5117
     216          30424         2.1550         0.4848         0.4862
     217          29450         2.1650         0.4650         0.4646
     218          28500         2.1750         0.4458         0.4449
     219          27428         2.1850         0.4251         0.4266
     220          26809         2.1950         0.4118         0.4115
     221          26128         2.2050         0.3977         0.3963
     222          25051         2.2150         0.3778         0.3793
     223          24310         2.2250         0.3634         0.3622
     224          23517         2.2350         0.3484         0.3500
     225          23229         2.2450         0.3411         0.3409
     226          22743         2.2550         0.3310         0.3277
     227          21464         2.2650         0.3096         0.3147
     228          21481         2.2750         0.3071         0.3032
     229          20792         2.2850         0.2947         0.2971
     230          20609         2.2950         0.2896         0.2881
     231          20184         2.3050         0.2811         0.2824
     232          20001         2.3150         0.2762         0.2746
     233          19498         2.3250         0.2669         0.2684
     234          19454         2.3350         0.2640         0.2637
     235          19360         2.3450         0.2605         0.2592
     236          18950         2.3550         0.2529         0.2553
     237          19146         2.3650         0.2533         0.2508
     238          18743         2.3750         0.2459         0.2476
     239          18762         2.3850         0.2441         0.2429
     240          18683         2.3950         0.2410         0.2426
     241          19025         2.4050         0.2434         0.2420
     242          18910         2.4150         0.2399         0.2393
     243          18691         2.4250         0.2352         0.2380
     244          19353         2.4350         0.2415         0.2383
     245          19237         2.4450         0.2381         0.2405
     246          19677         2.4550         0.2416         0.2402
     247          19776         2.4650         0.2408         0.2413
     248          19997         2.4750         0.2416         0.2419
     249          20373         2.4850         0.2441         0.2436
     250          20577         2.4950         0.2446         0.2444
     251          20815         2.5050         0.2455         0.2465
     252          21549         2.5150         0.2521         0.2516
     253          22195         2.5250         0.2576         0.2573
     254          22656         2.5350         0.2609         0.2610
     255          23110         2.5450         0.2640         0.2640
     256          23674         2.5550         0.2684         0.2689
     257          24475         2.5650         0.2753         0.2747
     258          25111         2.5750         0.2803         0.2802
     259          25800         2.5850         0.2857         0.2865
     260          26837         2.5950         0.2949         0.2939
     261          27699         2.6050         0.3021         0.3034
     262          28897         2.6150         0.3127         0.3111
     263          29551         2.6250         0.3174         0.3181
     264          30524         2.6350         0.3253         0.3258
     265          31892         2.6450         0.3373         0.3371
     266          33208         2.6550         0.3486         0.3479
     267          34226         2.6650         0.3566         0.3571
     268          35462         2.6750         0.3667         0.3666
     269          36871         2.6850         0.3785         0.3791
     270          38570         2.6950         0.3930         0.3916
     271          39917         2.7050         0.4037         0.4051
     272          41817         2.7150         0.4198         0.4187
     273          43511         2.7250         0.4336         0.4343
     274          45476         2.7350         0.4499         0.4494
     275          47369         2.7450         0.4652         0.4653
     276          49410         2.7550         0.4817         0.4825
     277          51691         2.7650         0.5003         0.4984
     278          53349         2.7750         0.5127         0.5148
     279          55821         2.7850         0.5326         0.5309
     280          57960         2.7950         0.5490         0.5506
     281          60711         2.8050         0.5710         0.5698
     282          63142         2.8150         0.5897         0.5902
     283          65789         2.8250         0.6100         0.6096
     284          68453         2.8350         0.6303         0.6309
     285          71505         2.8450         0.6537         0.6531
     286          74493         2.8550         0.6763         0.6771
     287          77853         2.8650         0.7019         0.7009
     288          80933         2.8750         0.7246         0.7253
     289          84354         2.8850         0.7500         0.7495
     290          87760         2.8950         0.7749         0.7750
     291          91371         2.9050         0.8012         0.8023
     292          95229         2.9150         0.8293         0.8262
     293          97939         2.9250         0.8471         0.8505
     294         102285         2.9350         0.8787         0.8775
     295         106560         2.9450         0.9092         0.9089
     296         110647         2.9550         0.9377         0.9381
     297         114847         2.9650         0.9667         0.9659
     298         118843         2.9750         0.9937         0.9949
     299         123417         2.9850         1.0250         1.0233
     300         127644         2.9950         1.0530         1.0560
     301         132971         3.0050         1.0897         1.0862
     302         136609         3.0150         1.1121         1.1131
     303         140723         3.0250         1.1380         1.1403
     304         146114         3.0350         1.1738         1.1709
     305         150288         3.0450         1.1995         1.2012
     306         155084         3.0550         1.2297         1.2294
     307         159750         3.0650         1.2584         1.2577
     308         163947         3.0750         1.2831         1.2837
     309         168419         3.0850         1.3095         1.3095
     310         173052         3.0950         1.3369         1.3372
     311         177842         3.1050         1.3651         1.3643
     312         182284         3.1150         1.3902         1.3909
     313         186985         3.1250         1.4169         1.4170
     314         191392         3.1350         1.4411         1.4393
     315         194871         3.1450         1.4580         1.4607
     316         199485         3.1550         1.4830         1.4809
     317         203081         3.1650         1.5002         1.5011
     318         206867         3.1750         1.5186         1.5191
     319         210712         3.1850         1.5371         1.5351
     320         213623         3.1950         1.5486         1.5525
     321         217879         3.2050         1.5696         1.5642
     322         219434         3.2150         1.5710         1.5761
     323         223073         3.2250         1.5872         1.5836
     324         225340         3.2350         1.5934         1.5962
     325         228666         3.2450         1.6070         1.6062
     326         230880         3.2550         1.6126         1.6089
     327         231093         3.2650         1.6042         1.6111
     328         234605         3.2750         1.6186         1.6121
     329         235149         3.2850         1.6125         1.6172
     330         237573         3.2950         1.6193         1.6172
     331         238780         3.3050         1.6177         1.6173
     332         239225         3.3150         1.6109         1.6120
     333         240047         3.3250         1.6068         1.6064
     334         240521         3.3350         1.6003         1.5995
     335         240552         3.3450         1.5909         1.5926
     336         241455         3.3550         1.5874         1.5861
     337         241608         3.3650         1.5790         1.5800
     338         241703         3.3750         1.5703         1.5682
     339         240547         3.3850         1.5535         1.5562
     340         240663         3.3950         1.5451         1.5429
     341         239776         3.4050         1.5304         1.5326
     342         239697         3.4150         1.5210         1.5183
     343         238256         3.4250         1.5030         1.5060
     344         238160         3.4350         1.4937         1.4909
     345         236514         3.4450         1.4747         1.4766
     346         235653         3.4550         1.4609         1.4603
     347         234515         3.4650         1.4454         1.4457
     348         233153         3.4750         1.4288         1.4271
     349         231045         3.4850         1.4078         1.4112
     350         230926         3.4950         1.3990         1.3955
     351         228945         3.5050         1.3791         1.3816
     352         228010         3.5150         1.3657         1.3639
     353         226092         3.5250         1.3465         1.3471
     354         224539         3.5350         1.3297         1.3302
     355         223486         3.5450         1.3160         1.3152
     356         222135         3.5550         1.3007         1.3017
     357         221246         3.5650         1.2882         1.2866
     358         219478         3.5750         1.2708         1.2727
     359         218709         3.5850         1.2593         1.2575
     360         217068         3.5950         1.2429         1.2448
     361         216334         3.6050         1.2318         1.2300
     362         214457         3.6150         1.2144         1.2154
     363         213232         3.6250         1.2008         1.2010
     364         212439         3.6350         1.1898         1.1894
     365         211550         3.6450         1.1783         1.1787
     366         210888         3.6550         1.1682         1.1679
     367         209899         3.6650         1.1564         1.1565
     368         208684         3.6750         1.1434         1.1423
     369         207166         3.6850         1.1290         1.1314
     370         207647         3.6950         1.1255         1.1238
     371         207265         3.7050         1.1173         1.1180
     372         206701         3.7150         1.1083         1.1069
     373         205311         3.7250         1.0950         1.0966
     374         205476         3.7350         1.0900         1.0903
     375         205915         3.7450         1.0865         1.0843
     376         204545         3.7550         1.0735         1.0749
     377         204141         3.7650         1.0657         1.0660
     378         204323         3.7750         1.0610         1.0605
     379         204104         3.7850         1.0543         1.0534
     380         203597         3.7950         1.0461         1.0484
     381         204822         3.8050         1.0469         1.0450
     382         204681         3.8150         1.0407         1.0410
     383         204426         3.8250         1.0340         1.0342
     384         204602         3.8350         1.0295         1.0305
     385         205360         3.8450         1.0279         1.0256
     386         204550         3.8550         1.0186         1.0210
     387         205514         3.8650         1.0181         1.0168
     388         205888         3.8750         1.0147         1.0146
     389         206198         3.8850         1.0110         1.0117
     390         207156         3.8950         1.0105         1.0101
     391         207732         3.9050         1.0081         1.0073
     392         207684         3.9150         1.0027         1.0041
     393         208697         3.9250         1.0025         1.0013
     394         209089         3.9350         0.9993         1.0003
     395         210093         3.9450         0.9990         0.9983
     396         210466         3.9550         0.9957         0.9957
     397         210658         3.9650         0.9916         0.9916
     398         211152         3.9750         0.9889         0.9896
     399         212472         3.9850         0.9901         0.9898
     400         213444         3.9950         0.9897         0.9886
     401         213557         4.0050         0.9853         0.9873
     402         215029         4.0150         0.9871         0.9847
     403         214891         4.0250         0.9816         0.9838
     404         216187         4.0350         0.9826         0.9806
     405         216412         4.0450         0.9788         0.9809
     406         218089         4.0550         0.9815         0.9793
     407         218220         4.0650         0.9773         0.9794
     408         219571         4.0750         0.9785         0.9761
     409         219377         4.0850         0.9728         0.9754
     410         221102         4.0950         0.9757         0.9736
     411         221416         4.1050         0.9723         0.9735
     412         222566         4.1150         0.9727         0.9726
     413         223697         4.1250         0.9729         0.9722
     414         224089         4.1350         0.9699         0.9702
     415         224835         4.1450         0.9684         0.9690
     416         225989         4.1550         0.9687         0.9672
     417         226076         4.1650         0.9644         0.9662
     418         227640         4.1750         0.9664         0.9655
     419         228358         4.1850         0.9649         0.9643
     420         228502         4.1950         0.9609         0.9625
     421         230010         4.2050         0.9626         0.9609
     422         230232         4.2150         0.9590         0.9603
     423         231260         4.2250         0.9587         0.9576
     424         231525         4.2350         0.9553         0.9559
     425         232497         4.2450         0.9548         0.9553
     426         233934         4.2550         0.9562         0.9550
     427         234191         4.2650         0.9527         0.9534
     428         235078         4.2750         0.9519         0.9524
     429         236443         4.2850         0.9529         0.9516
     430         236607         4.2950         0.9492         0.9504
     431         237760         4.3050         0.9494         0.9487
     432         238547         4.3150         0.9481         0.9483
     433         239487         4.3250         0.9474         0.9472
     434         240419         4.3350         0.9467         0.9473
     435         241819         4.3450         0.9479         0.9475
     436         242567         4.3550         0.9464         0.9458
     437         242585         4.3650         0.9422         0.9434
     438         243735         4.3750         0.9423         0.9412
     439         244268         4.3850         0.9401         0.9415
     440         245881         4.3950         0.9420         0.9403
     441         246005         4.4050         0.9382         0.9398
     442         247118         4.4150         0.9382         0.9363
     443         246768         4.4250         0.9326         0.9342
     444         248214         4.4350         0.9338         0.9338
     445         249815         4.4450         0.9356         0.9342
     446         250073         4.4550         0.9324         0.9343
     447         251952         4.4650         0.9352         0.9336
     448         252452         4.4750         0.9329         0.9334
     449         253610         4.4850         0.9330         0.9343
     450         255973         4.4950         0.9375         0.9356
     451         256014         4.5050         0.9335         0.9341
     452         256319         4.5150         0.9305         0.9310
     453         257483         4.5250         0.9306         0.9301
     454         258557         4.5350         0.9303         0.9312
     455         260022         4.5450         0.9315         0.9294
     456         259561         4.5550         0.9258         0.9287
     457         261714         4.5650         0.9294         0.9267
     458         261562         4.5750         0.9248         0.9261
     459         262899         4.5850         0.9254         0.9261
     460         265132         4.5950         0.9292         0.9275
     461         265573         4.6050         0.9268         0.9284
     462         267232         4.6150         0.9285         0.9266
     463         267540         4.6250         0.9256         0.9280
     464         270315         4.6350         0.9311         0.9285
     465         271058         4.6450         0.9297         0.9327
     466         274052         4.6550         0.9359         0.9323
     467         273143         4.6650         0.9288         0.9312
     468         274439         4.6750         0.9292         0.9287
     469         275772         4.6850         0.9298         0.9294
     470         276874         4.6950         0.9295         0.9301
     471         278798         4.7050         0.9320         0.9318
     472         280518         4.7150         0.9338         0.9331
     473         281504         4.7250         0.9331         0.9344
     474         283474         4.7350         0.9356         0.9335
     475         283320         4.7450         0.9312         0.9331
     476         285420         4.7550         0.9342         0.9336
     477         287335         4.7650         0.9365         0.9362
     478         288689         4.7750         0.9370         0.9373
     479         290281         4.7850         0.9382         0.9382
     480         291784         4.7950         0.9391         0.9392
     481         293011         4.8050         0.9392         0.9380
     482         293547         4.8150         0.9370         0.9397
     483         297240         4.8250         0.9448         0.9420
     484         297975         4.8350         0.9432         0.9451
     485         300075         4.8450         0.9460         0.9448
     486         301105         4.8550         0.9453         0.9463
     487         303068         4.8650         0.9476         0.9468
     488         304364         4.8750         0.9477         0.9485
     489         306368         4.8850         0.9501         0.9494
     490         307539         4.8950         0.9498         0.9497
     491         308799         4.9050         0.9498         0.9510
     492         311382         4.9150         0.9539         0.9521
     493         312144         4.9250         0.9523         0.9536
     494         314558         4.9350         0.9558         0.9556
     495         317040         4.9450         0.9594         0.9593
     496         318823         4.9550         0.9609         0.9602
     497         319627         4.9650         0.9595         0.9610
     498         322257         4.9750         0.9635         0.9625
     499         323844         4.9850         0.9644         0.9645
     500         325307         4.9950         0.9649         0.9647
     501         326994         5.0050         0.9660         0.9669
     502         329702         5.0150         0.9701         0.9687
     503         330635         5.0250         0.9690         0.9697
     504         332378         5.0350         0.9702         0.9703
     505         334551         5.0450         0.9727         0.9723
     506         336310         5.0550         0.9739         0.9742
     507         338550         5.0650         0.9766         0.9768
     508         341096         5.0750         0.9800         0.9797
     509         342851         5.0850         0.9812         0.9809
     510         343988         5.0950         0.9806         0.9811
     511         345894         5.1050         0.9822         0.9819
     512         347946         5.1150         0.9841         0.9848
     513         350595         5.1250         0.9878         0.9866
     514         351664         5.1350         0.9869         0.9875
     515         353665         5.1450         0.9887         0.9893
     516         356750         5.1550         0.9934         0.9927
     517         358489         5.1650         0.9944         0.9944
     518         359513         5.1750         0.9934         0.9931
     519         360597         5.1850         0.9926         0.9939
     520         364032         5.1950         0.9982         0.9972
     521         366277         5.2050         1.0005         1.0006
     522         368001         5.2150         1.0013         1.0010
     523         369226         5.2250         1.0008         1.0012
     524         371350         5.2350         1.0027         1.0032
     525         374177         5.2450         1.0065         1.0058
     526         375637         5.2550         1.0066         1.0065
     527         376863         5.2650         1.0061         1.0071
     528         379618         5.2750         1.0096         1.0087
     529         380940         5.2850         1.0093         1.0089
     530         381847         5.2950         1.0078         1.0094
     531         384880         5.3050         1.0120         1.0102
     532         385859         5.3150         1.0108         1.0122
     533         388717         5.3250         1.0145         1.0140
     534         391101         5.3350         1.0169         1.0168
     535         392874         5.3450         1.0176         1.0177
     536         394078         5.3550         1.0170         1.0163
     537         394565         5.3650         1.0144         1.0158
     538         397280         5.3750         1.0176         1.0165
     539         398856         5.3850         1.0178         1.0182
     540         401006         5.3950         1.0195         1.0197
     541         403628         5.4050         1.0224         1.0226
     542         406115         5.4150         1.0249         1.0245
     543         406948         5.4250         1.0232         1.0225
     544         406711         5.4350         1.0189         1.0206
     545         409329         5.4450         1.0217         1.0203
     546         410693         5.4550         1.0213         1.0219
     547         412998         5.4650         1.0233         1.0235
     548         415685         5.4750         1.0262         1.0257
     549         417112         5.4850         1.0260         1.0258
     550         418049         5.4950         1.0245         1.0251
     551         420131         5.5050         1.0259         1.0260
     552         422498         5.5150         1.0279         1.0275
     553         423717         5.5250         1.0272         1.0270
     554         424366         5.5350         1.0250         1.0254
     555         426061         5.5450         1.0254         1.0258
     556         428746         5.5550         1.0282         1.0276
     557         430408         5.5650         1.0285         1.0286
     558         431693         5.5750         1.0278         1.0277
     559         432372         5.5850         1.0258         1.0256
     560         433107         5.5950         1.0238         1.0246
     561         435204         5.6050         1.0251         1.0242
     562         436170         5.6150         1.0238         1.0244
     563         437995         5.6250         1.0244         1.0241
     564         439685         5.6350         1.0247         1.0252
     565         441554         5.6450         1.0254         1.0243
     566         441575         5.6550         1.0218         1.0227
     567         443057         5.6650         1.0216         1.0217
     568         444944         5.6750         1.0224         1.0217
     569         445783         5.6850         1.0207         1.0214
     570         447594         5.6950         1.0213         1.0209
     571         448876         5.7050         1.0206         1.0207
     572         450039         5.7150         1.0197         1.0194
     573         450912         5.7250         1.0181         1.0188
     574         452894         5.7350         1.0190         1.0180
     575         453410         5.7450         1.0166         1.0177
     576         455190         5.7550         1.0170         1.0159
     577         455415         5.7650         1.0140         1.0151
     578         457074         5.7750         1.0142         1.0130
     579         457476         5.7850         1.0116         1.0130
     580         459966         5.7950         1.0136         1.0121
     581         460205         5.8050         1.0106         1.0117
     582         461845         5.8150         1.0107         1.0099
     583         462525         5.8250         1.0087         1.0096
     584         464305         5.8350         1.0092         1.0084
     585         464781         5.8450         1.0067         1.0067
     586         465573         5.8550         1.0050         1.0064
     587         468623         5.8650         1.0082         1.0063
     588         468363         5.8750         1.0042         1.0052
     589         469221         5.8850         1.0026         1.0023
     590         470180         5.8950         1.0012         1.0019
     591         471847         5.9050         1.0014         0.9996
     592         471106         5.9150         0.9964         0.9992
     593         474860         5.9250         1.0010         0.9986
     594         474758         5.9350         0.9974         0.9983
     595         475482         5.9450         0.9956         0.9958
     596         476899         5.9550         0.9952         0.9945
     597         477435         5.9650         0.9930         0.9937
     598         479185         5.9750         0.9933         0.9930
     599         480087         5.9850         0.9918         0.9907
     600         479771         5.9950         0.9879         0.9907
     601         484398         6.0050         0.9941         0.9912
     602         483936         6.0150         0.9898         0.9910
     603         484698         6.0250         0.9881         0.9884
     604         486571         6.0350         0.9886         0.9881
     605         487641         6.0450         0.9875         0.9879
     606         488906         6.0550         0.9868         0.9860
     607         489260         6.0650         0.9843         0.9854
     608         492103         6.0750         0.9867         0.9863
     609         494141         6.0850         0.9876         0.9870
     610         494447         6.0950         0.9849         0.9852
     611         495153         6.1050         0.9831         0.9835
     612         496959         6.1150         0.9835         0.9832
     613         498506         6.1250         0.9833         0.9833
     614         500336         6.1350         0.9837         0.9848
     615         503323         6.1450         0.9864         0.9841
     616         502151         6.1550         0.9809         0.9831
     617         504890         6.1650         0.9830         0.9818
     618         506219         6.1750         0.9824         0.9830
     619         508096         6.1850         0.9829         0.9824
     620         508942         6.1950         0.9813         0.9815
     621         510085         6.2050         0.9804         0.9808
     622         511927         6.2150         0.9808         0.9799
     623         512248         6.2250         0.9782         0.9787
     624         513864         6.2350         0.9782         0.9786
     625         516961         6.2450         0.9809         0.9806
     626         519018         6.2550         0.9817         0.9813
     627         519485         6.2650         0.9794         0.9796
     628         520375         6.2750         0.9780         0.9784
     629         522370         6.2850         0.9786         0.9779
     630         523708         6.2950         0.9780         0.9789
     631         526879         6.3050         0.9808         0.9806
     632         528888         6.3150         0.9814         0.9802
     633         528193         6.3250         0.9770         0.9789
     634         531194         6.3350         0.9795         0.9781
     635         532301         6.3450         0.9784         0.9791
     636         534546         6.3550         0.9795         0.9797
     637         536810         6.3650         0.9805         0.9793
     638         536770         6.3750         0.9774         0.9793
     639         540227         6.3850         0.9806         0.9789
     640         540794         6.3950         0.9786         0.9795
     641         542930         6.4050         0.9794         0.9791
     642         545194         6.4150         0.9804         0.9807
     643         547692         6.4250         0.9818         0.9810
     644         548420         6.4350         0.9801         0.9809
     645         550791         6.4450         0.9812         0.9810
     646         552840         6.4550         0.9818         0.9817
     647         554478         6.4650         0.9817         0.9821
     648         556797         6.4750         0.9828         0.9826
     649         558504         6.4850         0.9828         0.9826
     650         559516         6.4950         0.9815         0.9813
     651         560440         6.5050         0.9801         0.9810
     652         563495         6.5150         0.9824         0.9814
     653         564999         6.5250         0.9820         0.9830
     654         567963         6.5350         0.9842         0.9831
     655         568838         6.5450         0.9827         0.9834
     656         571298         6.5550         0.9839         0.9839
     657         573901         6.5650         0.9854         0.9849
     658         575473         6.5750         0.9851         0.9856
     659         578276         6.5850         0.9869         0.9869
     660         580871         6.5950         0.9883         0.9877
     661         581615         6.6050         0.9866         0.9867
     662         583233         6.6150         0.9863         0.9875
     663         587550         6.6250         0.9906         0.9889
     664         587946         6.6350         0.9883         0.9894
     665         589945         6.6450         0.9887         0.9879
     666         591211         6.6550         0.9878         0.9891
     667         595207         6.6650         0.9915         0.9906
     668         596722         6.6750         0.9911         0.9907
     669         596882         6.6850         0.9884         0.9892
     670         599574         6.6950         0.9899         0.9901
     671         603031         6.7050         0.9926         0.9916
     672         604179         6.7150         0.9915         0.9925
     673         607482         6.7250         0.9940         0.9941
     674         610884         6.7350         0.9966         0.9957
     675         611777         6.7450         0.9951         0.9960
     676         613718         6.7550         0.9953         0.9943
     677         613884         6.7650         0.9926         0.9938
     678         616995         6.7750         0.9947         0.9942
     679         619553         6.7850         0.9959         0.9959
     680         622010         6.7950         0.9969         0.9972
     681         624946         6.8050         0.9987         0.9982
     682         626485         6.8150         0.9982         0.9984
     683         628393         6.8250         0.9983         0.9987
     684         631200         6.8350         0.9998         0.9991
     685         632674         6.8450         0.9992         0.9999
     686         635635         6.8550         1.0010         1.0007
     687         637725         6.8650         1.0014         1.0007
     688         638447         6.8750         0.9996         1.0009
     689         642277         6.8850         1.0027         1.0017
     690         644110         6.8950         1.0026         1.0025
     691         645716         6.9050         1.0022         1.0032
     692         649556         6.9150         1.0052         1.0040
     693         650648         6.9250         1.0040         1.0049
     694         653016         6.9350         1.0048         1.0040
     695         653905         6.9450         1.0032         1.0040
     696         656567         6.9550         1.0044         1.0038
     697         658788         6.9650         1.0049         1.0061
     698         663013         6.9750         1.0085         1.0065
     699         662846         6.9850         1.0054         1.0075
     700         666913         6.9950         1.0086         1.0071
     701         667668         7.0050         1.0069         1.0077
     702         669627         7.0150         1.0070         1.0062
     703         670928         7.0250         1.0061         1.0071
     704         675320         7.0350         1.0098         1.0092
     705         678146         7.0450         1.0111         1.0104
     706         678918         7.0550         1.0094         1.0106
     707         682932         7.0650         1.0125         1.0122
     708         685828         7.0750         1.0139         1.0128
     709         685647         7.0850         1.0108         1.0124
     710         689557         7.0950         1.0137         1.0127
     711         691659         7.1050         1.0139         1.0143
     712         693861         7.1150         1.0143         1.0138
     713         694769         7.1250         1.0128         1.0133
     714         696863         7.1350         1.0130         1.0126
     715         698673         7.1450         1.0128         1.0129
     716         701555         7.1550         1.0141         1.0145
     717         705452         7.1650         1.0169         1.0163
     718         707067         7.1750         1.0164         1.0163
     719         707907         7.1850         1.0148         1.0149
     720         710024         7.1950         1.0150         1.0159
     721         714497         7.2050         1.0185         1.0170
     722         715119         7.2150         1.0166         1.0178
     723         718011         7.2250         1.0179         1.0170
     724         719321         7.2350         1.0169         1.0175
     725         722037         7.2450         1.0179         1.0179
     726         724645         7.2550         1.0188         1.0186
     727         726297         7.2650         1.0183         1.0182
     728         727675         7.2750         1.0174         1.0179
     729         730586         7.2850         1.0187         1.0184
     730         732824         7.2950         1.0190         1.0191
     731         734903         7.3050         1.0191         1.0190
     732         736769         7.3150         1.0189         1.0191
     733         739156         7.3250         1.0194         1.0191
     734         740888         7.3350         1.0190         1.0195
     735         743511         7.3450         1.0199         1.0193
     736         744848         7.3550         1.0189         1.0192
     737         747174         7.3650         1.0193         1.0195
     738         750472         7.3750         1.0211         1.0212
     739         753178         7.3850         1.0220         1.0209
     740         752731         7.3950         1.0186         1.0198
     741         755659         7.4050         1.0198         1.0193
     742         758304         7.4150         1.0206         1.0212
     743         761722         7.4250         1.0224         1.0213
     744         761739         7.4350         1.0197         1.0209
     745         764327         7.4450         1.0204         1.0195
     746         765120         7.4550         1.0188         1.0196
     747         767970         7.4650         1.0198         1.0192
     748         769742         7.4750         1.0194         1.0199
     749         772559         7.4850         1.0204         1.0199
     750         774200         7.4950         1.0199         1.0207
     751         777427         7.5050         1.0214         1.0203
     752         777643         7.5150         1.0190         1.0196
     753         779729         7.5250         1.0190         1.0191
     754         782728         7.5350         1.0202         1.0200
     755         784762         7.5450         1.0201         1.0198
     756         785494         7.5550         1.0184         1.0188
     757         787535         7.5650         1.0183         1.0185
     758         790186         7.5750         1.0191         1.0185
     759         791391         7.5850         1.0179         1.0187
     760         794370         7.5950         1.0191         1.0183
     761         795759         7.6050         1.0182         1.0191
     762         799099         7.6150         1.0198         1.0187
     763         799359         7.6250         1.0174         1.0181
     764         801148         7.6350         1.0170         1.0169
     765         803241         7.6450         1.0170         1.0173
     766         805955         7.6550         1.0178         1.0172
     767         806855         7.6650         1.0163         1.0167
     768         808817         7.6750         1.0161         1.0159
     769         810378         7.6850         1.0154         1.0153
     770         811810         7.6950         1.0146         1.0148
     771         814171         7.7050         1.0149         1.0146
     772         816011         7.7150         1.0145         1.0147
     773         817997         7.7250         1.0144         1.0139
     774         819327         7.7350         1.0134         1.0142
     775         823255         7.7450         1.0156         1.0153
     776         825275         7.7550         1.0155         1.0146
     777         824116         7.7650         1.0114         1.0127
     778         826961         7.7750         1.0123         1.0120
     779         829208         7.7850         1.0125         1.0120
     780         829684         7.7950         1.0105         1.0110
     781         832017         7.8050         1.0107         1.0107
     782         834547         7.8150         1.0112         1.0107
     783         835514         7.8250         1.0098         1.0102
     784         837684         7.8350         1.0098         1.0096
     785         839574         7.8450         1.0095         1.0094
     786         841275         7.8550         1.0090         1.0093
     787         843794         7.8650         1.0094         1.0092
     788         845473         7.8750         1.0089         1.0089
     789         846657         7.8850         1.0077         1.0076
     790         847296         7.8950         1.0059         1.0059
     791         848718         7.9050         1.0051         1.0059
     792         852733         7.9150         1.0073         1.0060
     793         853113         7.9250         1.0052         1.0064
     794         856222         7.9350         1.0063         1.0049
     795         855947         7.9450         1.0035         1.0049
     796         860024         7.9550         1.0057         1.0048
     797         861500         7.9650         1.0049         1.0049
     798         862426         7.9750         1.0035         1.0041
     799         865195         7.9850         1.0042         1.0032
     800         865283         7.9950         1.0018         1.0028
     801         868085         8.0050         1.0025         1.0018
     802         868617         8.0150         1.0006         1.0004
     803         868791         8.0250         0.9983         0.9992
     804         872509         8.0350         1.0001         0.9992
     805         874190         8.0450         0.9995         1.0003
     806         877322         8.0550         1.0006         0.9996
     807         877240         8.0650         0.9980         0.9990
     808         879902         8.0750         0.9986         0.9978
     809         880978         8.0850         0.9973         0.9982
     810         884340         8.0950         0.9987         0.9977
     811         884754         8.1050         0.9967         0.9974
     812         886833         8.1150         0.9966         0.9957
     813         887521         8.1250         0.9949         0.9963
     814         892259         8.1350         0.9977         0.9959
     815         891335         8.1450         0.9943         0.9955
     816         893674         8.1550         0.9944         0.9938
     817         895063         8.1650         0.9935         0.9941
     818         898090         8.1750         0.9944         0.9941
     819         899656         8.1850         0.9938         0.9935
     820         900348         8.1950         0.9921         0.9926
     821         903379         8.2050         0.9930         0.9930
     822         906293         8.2150         0.9938         0.9932
     823         906639         8.2250         0.9917         0.9923
     824         908671         8.2350         0.9916         0.9912
     825         910462         8.2450         0.9911         0.9919
     826         914311         8.2550         0.9929         0.9915
     827         913811         8.2650         0.9899         0.9913
     828         917257         8.2750         0.9913         0.9904
     829         918766         8.2850         0.9905         0.9911
     830         921565         8.2950         0.9911         0.9908
     831         922996         8.3050         0.9903         0.9902
     832         924137         8.3150         0.9891         0.9895
     833         926666         8.3250         0.9894         0.9892
     834         928405         8.3350         0.9889         0.9891
     835         930345         8.3450         0.9886         0.9881
     836         931139         8.3550         0.9871         0.9879
     837         935042         8.3650         0.9889         0.9885
     838         937598         8.3750         0.9892         0.9891
     839         938712         8.3850         0.9880         0.9880
     840         939712         8.3950         0.9867         0.9868
     841         941617         8.4050         0.9864         0.9863
     842         944162         8.4150         0.9867         0.9870
     843         947495         8.4250         0.9878         0.9870
     844         948383         8.4350         0.9864         0.9875
     845         952349         8.4450         0.9882         0.9869
     846         952485         8.4550         0.9860         0.9873
     847         956575         8.4650         0.9879         0.9867
     848         957527         8.4750         0.9865         0.9875
     849         961199         8.4850         0.9880         0.9873
     850         962672         8.4950         0.9872         0.9874
     851         964855         8.5050         0.9871         0.9873
     852         967609         8.5150         0.9876         0.9870
     853         968435         8.5250         0.9861         0.9869
     854         971948         8.5350         0.9874         0.9867
     855         973373         8.5450         0.9865         0.9864
     856         974923         8.5550         0.9858         0.9867
     857         979835         8.5650         0.9884         0.9871
     858         979934         8.5750         0.9862         0.9867
     859         981802         8.5850         0.9858         0.9862
     860         985838         8.5950         0.9875         0.9871
     861         987934         8.6050         0.9873         0.9869
     862         988877         8.6150         0.9860         0.9874
     863         994308         8.6250         0.9891         0.9872
     864         993153         8.6350         0.9857         0.9874
     865         997105         8.6450         0.9873         0.9859
     866         997748         8.6550         0.9857         0.9874
     867        1003608         8.6650         0.9892         0.9873
     868        1002651         8.6750         0.9859         0.9870
     869        1005294         8.6850         0.9863         0.9865
     870        1009857         8.6950         0.9885         0.9879
     871        1011841         8.7050         0.9881         0.9883
     872        1013726         8.7150         0.9877         0.9879
     873        1016392         8.7250         0.9880         0.9877
     874        1018098         8.7350         0.9874         0.9875
     875        1020817         8.7450         0.9878         0.9882
     876        1024997         8.7550         0.9896         0.9890
     877        1026628         8.7650         0.9889         0.9890
     878        1028411         8.7750         0.9883         0.9885
     879        1031436         8.7850         0.9890         0.9892
     880        1035148         8.7950         0.9903         0.9899
     881        1037131         8.8050         0.9899         0.9905
     882        1040328         8.8150         0.9907         0.9901
     883        1041371         8.8250         0.9895         0.9901
     884        1044601         8.8350         0.9903         0.9901
     885        1047434         8.8450         0.9908         0.9909
     886        1050192         8.8550         0.9911         0.9906
     887        1050931         8.8650         0.9896         0.9901
     888        1054236         8.8750         0.9905         0.9906
     889        1058610         8.8850         0.9923         0.9917
     890        1060494         8.8950         0.9919         0.9923
     891        1063873         8.9050         0.9928         0.9926
     892        1066839         8.9150         0.9933         0.9933
     893        1069357         8.9250         0.9934         0.9936
     894        1071823         8.9350         0.9935         0.9932
     895        1073325         8.9450         0.9927         0.9930
     896        1076306         8.9550         0.9932         0.9929
     897        1078610         8.9650         0.9931         0.9934
     898        1081465         8.9750         0.9935         0.9928
     899        1082652         8.9850         0.9924         0.9937
     900        1088925         8.9950         0.9959         0.9947
     901        1090225         9.0050         0.9949         0.9955
     902        1092803         9.0150         0.9951         0.9950
     903        1095307         9.0250         0.9951         0.9951
     904        1097683         9.0350         0.9951         0.9954
     905        1100770         9.0450         0.9957         0.9952
     906        1101895         9.0550         0.9945         0.9945
     907        1103985         9.0650         0.9942         0.9950
     908        1109663         9.0750         0.9971         0.9961
     909        1111401         9.0850         0.9965         0.9970
     910        1114230         9.0950         0.9968         0.9963
     911        1115545         9.1050         0.9958         0.9963
     912        1119497         9.1150         0.9971         0.9971
     913        1123096         9.1250         0.9981         0.9974
     914        1123526         9.1350         0.9963         0.9972
     915        1127629         9.1450         0.9978         0.9973
     916        1131289         9.1550         0.9988         0.9995
     917        1136181         9.1650         1.0010         0.9998
     918        1135764         9.1750         0.9984         0.9993
     919        1138512         9.1850         0.9987         0.9986
     920        1141527         9.1950         0.9991         0.9988
     921        1143338         9.2050         0.9985         0.9990
     922        1146987         9.2150         0.9996         0.9993
     923        1149512         9.2250         0.9996         0.9992
     924        1151029         9.2350         0.9987         0.9996
     925        1156683         9.2450         1.0015         1.0009
     926        1159476         9.2550         1.0017         1.0016
     927        1160121         9.2650         1.0001         1.0001
     928        1161624         9.2750         0.9993         1.0003
     929        1167771         9.2850         1.0024         1.0010
     930        1168465         9.2950         1.0008         1.0016
     931        1171668         9.3050         1.0014         1.0012
     932        1174694         9.3150         1.0018         1.0019
     933        1177610         9.3250         1.0022         1.0019
     934        1179583         9.3350         1.0017         1.0019
     935        1182882         9.3450         1.0024         1.0027
     936        1187347         9.3550         1.0040         1.0031
     937        1187649         9.3650         1.0021         1.0031
     938        1191309         9.3750         1.0030         1.0023
     939        1192669         9.3850         1.0021         1.0027
     940        1197046         9.3950         1.0036         1.0033
     941        1200112         9.4050         1.0040         1.0039
     942        1201776         9.4150         1.0033         1.0034
     943        1204325         9.4250         1.0033         1.0036
     944        1208696         9.4350         1.0048         1.0044
     945        1211264         9.4450         1.0048         1.0050
     946        1213749         9.4550         1.0047         1.0045
     947        1215250         9.4650         1.0038         1.0039
     948        1217842         9.4750         1.0039         1.0042
     949        1222021         9.4850         1.0052         1.0045
     950        1223002         9.4950         1.0039         1.0041
     951        1225410         9.5050         1.0037         1.0040
     952        1230001         9.5150         1.0054         1.0052
     953        1233286         9.5250         1.0059         1.0056
     954        1234014         9.5350         1.0044         1.0046
     955        1235757         9.5450         1.0037         1.0040
     956        1239440         9.5550         1.0046         1.0041
     957        1241482         9.5650         1.0042         1.0046
     958        1245816         9.5750         1.0056         1.0057
     959        1250187         9.5850         1.0070         1.0065
     960        1251211         9.5950         1.0057         1.0060
     961        1252742         9.6050         1.0049         1.0047
     962        1254476         9.6150         1.0042         1.0046
     963        1258051         9.6250         1.0049         1.0043
     964        1259250         9.6350         1.0038         1.0045
     965        1263728         9.6450         1.0053         1.0047
     966        1266455         9.6550         1.0054         1.0059
     967        1270801         9.6650         1.0067         1.0062
     968        1272313         9.6750         1.0058         1.0062
     969        1274633         9.6850         1.0056         1.0053
     970        1276167         9.6950         1.0047         1.0051
     971        1279973         9.7050         1.0057         1.0054
     972        1283158         9.7150         1.0061         1.0063
     973        1286640         9.7250         1.0067         1.0064
     974        1288713         9.7350         1.0063         1.0069
     975        1292118         9.7450         1.0069         1.0056
     976        1290538         9.7550         1.0036         1.0051
     977        1296159         9.7650         1.0059         1.0049
     978        1298538         9.7750         1.0057         1.0059
     979        1301516         9.7850         1.0059         1.0063
     980        1305941         9.7950         1.0073         1.0066
     981        1306747         9.8050         1.0059         1.0062
     982        1308947         9.8150         1.0055         1.0056
     983        1312081         9.8250         1.0059         1.0053
     984        1313461         9.8350         1.0049         1.0059
     985        1319015         9.8450         1.0071         1.0059
     986        1319230         9.8550         1.0052         1.0059
     987        1322097         9.8650         1.0053         1.0053
     988        1325168         9.8750         1.0056         1.0053
     989        1326019         9.8850         1.0042         1.0043
     990        1327584         9.8950         1.0034         1.0038
     991        1331951         9.9050         1.0047         1.0042
     992        1334818         9.9150         1.0048         1.0053
     993        1339106         9.9250         1.0060         1.0054
     994        1340022         9.9350         1.0046         1.0047
     995        1341702         9.9450         1.0039         1.0046
     996        1347103         9.9550         1.0059         1.0049
     997        1347538         9.9650         1.0042         1.0047
     998        1349607         9.9750         1.0037         1.0036
     999        1352269         9.9850         1.0037         1.0041
    1000        1357176         9.9950         1.0053         1.0050
    1001        1359633        10.0050         1.0051         1.0047
    1002        1359991        10.0150         1.0034         1.0045
    1003        1365731        10.0250         1.0056         1.0048
    1004        1367609        10.0350         1.0050         1.0051
    1005        1368781        10.0450         1.0039         1.0043
    1006        1371445        10.0550         1.0038         1.0032
    1007        1371251        10.0650         1.0017         1.0022
    1008        1374288        10.0750         1.0019         1.0020
    1009        1378927        10.0850         1.0033         1.0030
    1010        1382300        10.0950         1.0038         1.0043
    1011        1387009        10.1050         1.0052         1.0042
    1012        1386420        10.1150         1.0028         1.0036
    1013        1389496        10.1250         1.0030         1.0027
    1014        1391855        10.1350         1.0027         1.0027
    1015        1394237        10.1450         1.0025         1.0029
    1016        1398339        10.1550         1.0034         1.0028
    1017        1399535        10.1650         1.0023         1.0029
    1018        1403083        10.1750         1.0029         1.0026
    1019        1405268        10.1850         1.0025         1.0027
    1020        1407573        10.1950         1.0022         1.0018
    1021        1408524        10.2050         1.0009         1.0015
    1022        1412862        10.2150         1.0020         1.0015
    1023        1415303        10.2250         1.0018         1.0020
    1024        1418491        10.2350         1.0020         1.0018
    1025        1421038        10.2450         1.0019         1.0025
    1026        1425888        10.2550         1.0033         1.0022
    1027        1425207        10.2650         1.0009         1.0021
    1028        1430173        10.2750         1.0025         1.0019
    1029        1432420        10.2850         1.0021         1.0019
    1030        1432858        10.2950         1.0004         1.0010
    1031        1436094        10.3050         1.0007         1.0001
    1032        1437064        10.3150         0.9995         1.0002
    1033        1441032        10.3250         1.0003         0.9995
    1034        1441741        10.3350         0.9989         0.9998
    1035        1446862        10.3450         1.0005         0.9996
    1036        1448417        10.3550         0.9996         1.0001
    1037        1452698        10.3650         1.0006         1.0009
    1038        1458074        10.3750         1.0024         1.0016
    1039        1458328        10.3850         1.0006         1.0013
    1040        1460967        10.3950         1.0005         1.0002
    1041        1462942        10.4050         1.0000         1.0003
    1042        1466152        10.4150         1.0002         0.9995
    1043        1466812        10.4250         0.9988         0.9999
    1044        1472873        10.4350         1.0010         0.9999
    1045        1473134        10.4450         0.9992         0.9997
    1046        1474993        10.4550         0.9986         0.9987
    1047        1478498        10.4650         0.9990         0.9988
    1048        1481174        10.4750         0.9989         0.9992
    1049        1484889        10.4850         0.9995         0.9991
    1050        1486833        10.4950         0.9989         0.9996
    1051        1491454        10.5050         1.0001         0.9992
    1052        1491629        10.5150         0.9983         0.9992
    1053        1496267        10.5250         0.9995         0.9994
    1054        1499767        10.5350         1.0000         0.9993
    1055        1499679        10.5450         0.9980         0.9990
    1056        1504760        10.5550         0.9995         0.9987
    1057        1506608        10.5650         0.9988         0.9993
    1058        1510263        10.5750         0.9994         0.9993
    1059        1513214        10.5850         0.9994         0.9991
    1060        1514146        10.5950         0.9982         0.9986
    1061        1517036        10.6050         0.9982         0.9978
    1062        1518964        10.6150         0.9976         0.9981
    1063        1523766        10.6250         0.9988         0.9982
    1064        1525086        10.6350         0.9978         0.9981
    1065        1528136        10.6450         0.9980         0.9985
    1066        1533704        10.6550         0.9997         0.9986
    1067        1533072        10.6650         0.9974         0.9986
    1068        1538177        10.6750         0.9989         0.9982
    1069        1540115        10.6850         0.9983         0.9985
    1070        1542303        10.6950         0.9978         0.9977
    1071        1544549        10.7050         0.9974         0.9978
    1072        1548957        10.7150         0.9984         0.9977
    1073        1550226        10.7250         0.9973         0.9981
    1074        1555623        10.7350         0.9989         0.9984
    1075        1557644        10.7450         0.9984         0.9983
    1076        1559243        10.7550         0.9975         0.9981
    1077        1564060        10.7650         0.9988         0.9979
    1078        1564647        10.7750         0.9973         0.9979
    1079        1568912        10.7850         0.9982         0.9981
    1080        1573241        10.7950         0.9991         0.9989
    1081        1575194        10.8050         0.9984         0.9982
    1082        1575873        10.8150         0.9970         0.9978
    1083        1581432        10.8250         0.9987         0.9981
    1084        1583822        10.8350         0.9984         0.9984
    1085        1586043        10.8450         0.9979         0.9983
    1086        1590428        10.8550         0.9988         0.9983
    1087        1592033        10.8650         0.9980         0.9985
    1088        1595852        10.8750         0.9986         0.9981
    1089        1597807        10.8850         0.9979         0.9984
    1090        1601832        10.8950         0.9986         0.9981
    1091        1602880        10.9050         0.9974         0.9978
    1092        1606411        10.9150         0.9978         0.9979
    1093        1611018        10.9250         0.9988         0.9984
    1094        1613571        10.9350         0.9986         0.9992
    1095        1618715        10.9450         0.9999         0.9992
    1096        1619645        10.9550         0.9987         0.9995
    1097        1624615        10.9650         0.9999         0.9994
    1098        1626333        10.9750         0.9992         0.9989
    1099        1626807        10.9850         0.9976         0.9985
    1100        1632445        10.9950         0.9993         0.9985
    1101        1634124        11.0050         0.9985         0.9987
    1102        1636710        11.0150         0.9983         0.9985
    1103        1640456        11.0250         0.9987         0.9978
    1104        1640117        11.0350         0.9967         0.9979
    1105        1647439        11.0450         0.9993         0.9989
    1106        1651791        11.0550         1.0002         0.9998
    1107        1652044        11.0650         0.9985         0.9989
    1108        1654829        11.0750         0.9984         0.9985
    1109        1658707        11.0850         0.9989         0.9987
    1110        1660828        11.0950         0.9984         0.9984
    1111        1663398        11.1050         0.9982         0.9986
    1112        1668341        11.1150         0.9993         0.9987
    1113        1669520        11.1250         0.9982         0.9988
    1114        1673577        11.1350         0.9989         0.9985
    1115        1675534        11.1450         0.9982         0.9981
    1116        1677326        11.1550         0.9975         0.9982
    1117        1683623        11.1650         0.9995         0.9987
    1118        1685836        11.1750         0.9990         0.9996
    1119        1689973        11.1850         0.9996         0.9991
    1120        1690566        11.1950         0.9982         0.9985
    1121        1693450        11.2050         0.9981         0.9984
    1122        1698865        11.2150         0.9995         0.9990
    1123        1701842        11.2250         0.9995         1.0001
    1124        1707062        11.2350         1.0008         1.0002
    1125        1707941        11.2450         0.9995         0.9998
    1126        1709512        11.2550         0.9987         0.9984
    1127        1711510        11.2650         0.9981         0.9988
    1128        1718329        11.2750         1.0003         0.9993
    1129        1719386        11.2850         0.9991         0.9996
    1130        1722688        11.2950         0.9992         0.9994
    1131        1727038        11.3050         1.0000         0.9997
    1132        1729043        11.3150         0.9994         0.9996
    1133        1732178        11.3250         0.9994         0.9996
    1134        1736282        11.3350         1.0000         0.9999
    1135        1738677        11.3450         0.9997         0.9994
    1136        1739270        11.3550         0.9982         0.9988
    1137        1743930        11.3650         0.9991         0.9989
    1138        1747944        11.3750         0.9997         0.9996
    1139        1750694        11.3850         0.9995         0.9994
    1140        1752287        11.3950         0.9987         0.9987
    1141        1755228        11.4050         0.9986         0.9991
    1142        1761994        11.4150         1.0007         0.9999
    1143        1764465        11.4250         1.0003         1.0010
    1144        1769678        11.4350         1.0015         1.0007
    1145        1770265        11.4450         1.0001         1.0011
    1146        1776331        11.4550         1.0018         1.0011
    1147        1777808        11.4650         1.0009         1.0011
    1148        1779639        11.4750         1.0001         1.0001
    1149        1782696        11.4850         1.0001         1.0006
    1150        1788539        11.4950         1.0017         1.0010
    1151        1789563        11.5050         1.0005         1.0010
    1152        1792365        11.5150         1.0003         0.9998
    1153        1793012        11.5250         0.9989         0.9996
    1154        1799027        11.5350         1.0006         1.0004
    1155        1804251        11.5450         1.0017         1.0011
    1156        1804729        11.5550         1.0003         1.0010
    1157        1808578        11.5650         1.0007         1.0000
    1158        1809147        11.5750         0.9992         0.9997
    1159        1813444        11.5850         0.9999         1.0001
    1160        1818938        11.5950         1.0012         1.0005
    1161        1819541        11.6050         0.9998         1.0003
    1162        1823207        11.6150         1.0001         1.0002
    1163        1827611        11.6250         1.0008         0.9999
    1164        1826935        11.6350         0.9987         0.9998
    1165        1833515        11.6450         1.0006         1.0000
    1166        1836464        11.6550         1.0005         1.0001
    1167        1837061        11.6650         0.9991         0.9999
    1168        1843195        11.6750         1.0007         0.9996
    1169        1843928        11.6850         0.9994         1.0007
    1170        1852034        11.6950         1.0020         1.0005
    1171        1850837        11.7050         0.9997         1.0008
    1172        1856224        11.7150         1.0009         1.0005
    1173        1860146        11.7250         1.0013         1.0014
    1174        1863126        11.7350         1.0012         1.0006
    1175        1862687        11.7450         0.9992         1.0003
    1176        1869704        11.7550         1.0013         1.0007
    1177        1872485        11.7650         1.0011         1.0009
    1178        1873172        11.7750         0.9998         1.0004
    1179        1878495        11.7850         1.0009         1.0006
    1180        1881994        11.7950         1.0011         1.0009
    1181        1884008        11.8050         1.0004         1.0010
    1182        1889137        11.8150         1.0015         1.0009
    1183        1890109        11.8250         1.0003         1.0005
    1184        1892356        11.8350         0.9998         0.9997
    1185        1895615        11.8450         0.9998         1.0003
    1186        1902460        11.8550         1.0017         1.0012
    1187        1905086        11.8650         1.0014         1.0015
    1188        1906509        11.8750         1.0005         1.0005
    1189        1908547        11.8850         0.9999         1.0001
    1190        1912778        11.8950         1.0004         1.0002
    1191        1915831        11.9050         1.0003         1.0003
    1192        1917850        11.9150         0.9997         0.9995
    1193        1919746        11.9250         0.9990         0.9996
    1194        1926359        11.9350         1.0008         1.0002
    1195        1929030        11.9450         1.0005         1.0005
    1196        1930705        11.9550         0.9997         0.9998
    1197        1933704        11.9650         0.9995         0.9997
    1198        1938073        11.9750         1.0001         0.9998
    1199        1940876        11.9850         0.9999         1.0002
    1200        1945728        11.9950         1.0007         1.0008
    1201        1950375        12.0050         1.0015         1.0010
    1202        1950928        12.0150         1.0001         1.0006
    1203        1954402        12.0250         1.0002         0.9997
    1204        1956609        12.0350         0.9997         1.0006
    1205        1964668        12.0450         1.0021         1.0007
    1206        1963184        12.0550         0.9997         1.0008
    1207        1969054        12.0650         1.0010         1.0007
    1208        1972954        12.0750         1.0013         1.0008
    1209        1972596        12.0850         0.9995         1.0005
    1210        1978509        12.0950         1.0008         0.9999
    1211        1978560        12.1050         0.9992         1.0000
    1212        1982982        12.1150         0.9998         0.9991
    1213        1983967        12.1250         0.9986         0.9993
    1214        1989795        12.1350         0.9999         0.9993
    1215        1992855        12.1450         0.9998         1.0006
    1216        1999819        12.1550         1.0017         1.0007
    1217        1999348        12.1650         0.9998         1.0003
    1218        2002496        12.1750         0.9997         0.9998
    1219        2007488        12.1850         1.0006         1.0002
    1220        2009320        12.1950         0.9998         0.9999
    1221        2011413        12.2050         0.9992         0.9994
    1222        2015401        12.2150         0.9996         0.9995
    1223        2019420        12.2250         0.9999         0.9998
    1224        2022361        12.2350         0.9997         0.9996
    1225        2025331        12.2450         0.9996         1.0002
    1226        2031905        12.2550         1.0012         1.0003
    1227        2031530        12.2650         0.9994         0.9999
    1228        2034866        12.2750         0.9994         0.9992
    1229        2039018        12.2850         0.9998         1.0002
    1230        2045650        12.2950         1.0014         1.0009
    1231        2047004        12.3050         1.0004         1.0006
    1232        2048671        12.3150         0.9996         1.0000
    1233        2052905        12.3250         1.0001         0.9996
    1234        2054317        12.3350         0.9991         0.9996
    1235        2059230        12.3450         0.9999         0.9996
    1236        2062247        12.3550         0.9998         0.9997
    1237        2064879        12.3650         0.9994         0.9996
    1238        2069196        12.3750         0.9999         0.9998
    1239        2072373        12.3850         0.9998         0.9997
    1240        2074429        12.3950         0.9992         0.9994
    1241        2077797        12.4050         0.9992         0.9990
    1242        2080573        12.4150         0.9989         0.9995
    1243        2086495        12.4250         1.0001         0.9991
    1244        2085522        12.4350         0.9981         0.9990
    1245        2091852        12.4450         0.9995         0.9993
    1246        2097013        12.4550         1.0003         0.9998
    1247        2097471        12.4650         0.9990         0.9996
    1248        2102391        12.4750         0.9997         0.9993
    1249        2105102        12.4850         0.9994         0.9994
    1250        2107881        12.4950         0.9991         0.9993
    1251        2112333        12.5050         0.9996         0.9994
    1252        2115590        12.5150         0.9996         0.9996
    1253        2119111        12.5250         0.9996         0.9996
    1254        2123417        12.5350         1.0001         1.0003
    1255        2129124        12.5450         1.0011         1.0008
    1256        2131483        12.5550         1.0007         1.0007
    1257        2133319        12.5650         0.9999         0.9998
    1258        2135271        12.5750         0.9993         0.9996
    1259        2140389        12.5850         1.0001         0.9997
    1260        2143194        12.5950         0.9998         1.0000
    1261        2146426        12.6050         0.9997         0.9995
    1262        2147525        12.6150         0.9986         0.9986
    1263        2149607        12.6250         0.9980         0.9985
    1264        2156710        12.6350         0.9997         0.9995
    1265        2161046        12.6450         1.0001         0.9995
    1266        2159851        12.6550         0.9980         0.9990
    1267        2166238        12.6650         0.9994         0.9986
    1268        2168176        12.6750         0.9987         0.9991
    1269        2173119        12.6850         0.9994         0.9994
    1270        2177761        12.6950         1.0000         0.9996
    1271        2179321        12.7050         0.9991         0.9994
    1272        2182929        12.7150         0.9992         0.9992
    1273        2187330        12.7250         0.9996         0.9995
    1274        2190456        12.7350         0.9995         0.9996
    1275        2194195        12.7450         0.9996         0.9996
    1276        2197340        12.7550         0.9995         0.9995
    1277        2199975        12.7650         0.9991         0.9990
    1278        2202375        12.7750         0.9986         0.9987
    1279        2206599        12.7850         0.9990         0.9991
    1280        2211961        12.7950         0.9999         0.9997
    1281        2214843        12.8050         0.9996         0.9994
    1282        2216631        12.8150         0.9988         0.9994
    1283        2222573        12.8250         1.0000         0.9990
    1284        2222111        12.8350         0.9982         0.9992
    1285        2229164        12.8450         0.9998         0.9992
    1286        2231696        12.8550         0.9994         0.9993
    1287        2233336        12.8650         0.9986         0.9992
    1288        2240714        12.8750         1.0003         0.9997
    1289        2242806        12.8850         0.9997         0.9998
    1290        2245132        12.8950         0.9992         0.9995
    1291        2250232        12.9050         0.9999         0.9993
    1292        2251963        12.9150         0.9991         1.0001
    1293        2260810        12.9250         1.0015         1.0006
    1294        2261281        12.9350         1.0001         1.0002
    1295        2261920        12.9450         0.9989         0.9996
    1296        2268900        12.9550         1.0004         0.9997
    1297        2270540        12.9650         0.9996         0.9998
    1298        2273454        12.9750         0.9993         0.9998
    1299        2279362        12.9850         1.0004         0.9995
    1300        2278013        12.9950         0.9983         0.9990
    1301        2282872        13.0050         0.9988         0.9987
    1302        2288167        13.0150         0.9996         0.9998
    1303        2293292        13.0250         1.0003         0.9999
    1304        2294186        13.0350         0.9992         0.9996
    1305        2298762        13.0450         0.9996         0.9995
    1306        2302753        13.0550         0.9998         0.9996
    1307        2304532        13.0650         0.9991         0.9991
    1308        2307969        13.0750         0.9990         0.9995
    1309        2315679        13.0850         1.0009         1.0003
    1310        2317869        13.0950         1.0003         1.0003
    1311        2319090        13.1050         0.9993         0.9994
    1312        2322077        13.1150         0.9990         0.9988
    1313        2325285        13.1250         0.9989         0.9993
    1314        2332704        13.1350         1.0005         1.0004
    1315        2337973        13.1450         1.0013         1.0010
    1316        2338687        13.1550         1.0001         1.0003
    1317        2341476        13.1650         0.9997         0.9997
    1318        2345454        13.1750         0.9999         1.0003
    1319        2351382        13.1850         1.0009         1.0001
    1320        2350434        13.1950         0.9990         0.9999
    1321        2356353        13.2050         1.0000         0.9994
    1322        2358935        13.2150         0.9996         0.9999
    1323        2363652        13.2250         1.0001         0.9999
    1324        2366452        13.2350         0.9997         0.9997
    1325        2368766        13.2450         0.9992         0.9994
    1326        2373773        13.2550         0.9998         0.9999
    1327        2379492        13.2650         1.0007         1.0004
    1328        2382119        13.2750         1.0003         1.0004
    1329        2385893        13.2850         1.0004         1.0006
    1330        2391155        13.2950         1.0011         1.0007
    1331        2393268        13.3050         1.0005         1.0009
    1332        2398944        13.3150         1.0013         1.0010
    1333        2401630        13.3250         1.0009         1.0009
    1334        2403070        13.3350         1.0000         1.0002
    1335        2407022        13.3450         1.0002         1.0002
    1336        2411725        13.3550         1.0006         1.0005
    1337        2414817        13.3650         1.0004         1.0003
    1338        2417132        13.3750         0.9999         1.0001
    1339        2421850        13.3850         1.0003         1.0004
    1340        2425786        13.3950         1.0005         0.9999
    1341        2425141        13.4050         0.9987         0.9995
    1342        2432160        13.4150         1.0001         0.9996
    1343        2436338        13.4250         1.0003         1.0009
    1344        2443111        13.4350         1.0016         1.0009
    1345        2442943        13.4450         1.0001         1.0009
    1346        2448177        13.4550         1.0007         0.9998
    1347        2447508        13.4650         0.9990         1.0001
    1348        2456805        13.4750         1.0013         1.0004
    1349        2458440        13.4850         1.0005         1.0007
    1350        2460832        13.4950         0.9999         1.0001
    1351        2465651        13.5050         1.0004         1.0002
    1352        2470010        13.5150         1.0007         1.0011
    1353        2475928        13.5250         1.0016         1.0007
    1354        2473877        13.5350         0.9993         1.0004
    1355        2481429        13.5450         1.0009         1.0003
    1356        2484797        13.5550         1.0008         1.0006
    1357        2486028        13.5650         0.9998         1.0003
    1358        2492218        13.5750         1.0008         1.0003
    1359        2494863        13.5850         1.0004         1.0008
    1360        2500499        13.5950         1.0012         1.0008
    1361        2502965        13.6050         1.0007         1.0009
    1362        2506048        13.6150         1.0004         1.0002
    1363        2507874        13.6250         0.9997         1.0003
    1364        2514867        13.6350         1.0010         1.0004
    1365        2516810        13.6450         1.0003         1.0007
    1366        2521512        13.6550         1.0007         1.0006
    1367        2525441        13.6650         1.0008         1.0009
    1368        2529186        13.6750         1.0008         1.0006
    1369        2531782        13.6850         1.0004         1.0009
    1370        2538318        13.6950         1.0015         1.0009
    1371        2539481        13.7050         1.0005         1.0010
    1372        2544228        13.7150         1.0009         1.0006
    1373        2546355        13.7250         1.0003         1.0006
    1374        2550770        13.7350         1.0006         1.0004
    1375        2554405        13.7450         1.0005         1.0007
    1376        2559258        13.7550         1.0010         1.0010
    1377        2563542        13.7650         1.0012         1.0011
    1378        2565297        13.7750         1.0004         1.0004
    1379        2567346        13.7850         0.9998         1.0001
    1380        2573070        13.7950         1.0006         1.0002
    1381        2576110        13.8050         1.0003         1.0007
    1382        2581589        13.8150         1.0010         1.0005
    1383        2581870        13.8250         0.9996         0.9998
    1384        2584024        13.8350         0.9990         0.9992
    1385        2590130        13.8450         0.9999         0.9998
    1386        2596295        13.8550         1.0009         1.0011
    1387        2602335        13.8650         1.0018         1.0012
    1388        2602344        13.8750         1.0003         1.0007
    1389        2606316        13.8850         1.0004         1.0004
    1390        2612177        13.8950         1.0012         1.0012
    1391        2616364        13.9050         1.0014         1.0010
    1392        2616718        13.9150         1.0001         1.0006
    1393        2622256        13.9250         1.0007         1.0004
    1394        2625762        13.9350         1.0006         1.0007
    1395        2629126        13.9450         1.0005         1.0003
    1396        2632178        13.9550         1.0002         1.0008
    1397        2640569        13.9650         1.0020         1.0013
    1398        2641179        13.9750         1.0008         1.0010
    1399        2642777        13.9850         0.9999         1.0002
    1400        2647993        13.9950         1.0005         1.0002
    1401        2650897        14.0050         1.0001         1.0001
    1402        2653499        14.0150         0.9997         0.9998
    1403        2658543        14.0250         1.0002         1.0004
    1404        2665754        14.0350         1.0015         1.0008
    1405        2666639        14.0450         1.0004         1.0009
    1406        2672219        14.0550         1.0010         1.0009
    1407        2676293        14.0650         1.0011         1.0010
    1408        2678242        14.0750         1.0004         1.0007
    1409        2682697        14.0850         1.0007         1.0005
    1410        2685376        14.0950         1.0003         1.0001
    1411        2687972        14.1050         0.9998         1.0005
    1412        2696866        14.1150         1.0017         1.0006
    1413        2695676        14.1250         0.9998         1.0006
    1414        2701302        14.1350         1.0005         1.0003
    1415        2705844        14.1450         1.0008         1.0006
    1416        2707845        14.1550         1.0001         1.0003
    1417        2712480        14.1650         1.0004         1.0004
    1418        2716991        14.1750         1.0006         1.0005
    1419        2719773        14.1850         1.0003         1.0002
    1420        2722412        14.1950         0.9998         1.0003
    1421        2729479        14.2050         1.0010         1.0005
    1422        2731035        14.2150         1.0002         1.0004
    1423        2734439        14.2250         1.0000         1.0000
    1424        2738322        14.2350         1.0000         0.9997
    1425        2740150        14.2450         0.9993         0.9999
    1426        2748368        14.2550         1.0009         1.0003
    1427        2750977        14.2650         1.0004         1.0009
    1428        2755751        14.2750         1.0008         1.0002
    1429        2756316        14.2850         0.9996         1.0001
    1430        2762451        14.2950         1.0004         1.0003
    1431        2767265        14.3050         1.0007         1.0004
    1432        2767796        14.3150         0.9995         1.0000
    1433        2772337        14.3250         0.9998         0.9995
    1434        2775062        14.3350         0.9993         0.9994
    1435        2777902        14.3450         0.9990         0.9990
    1436        2782334        14.3550         0.9992         0.9994
    1437        2788803        14.3650         1.0001         0.9997
    1438        2790848        14.3750         0.9994         0.9996
    1439        2795159        14.3850         0.9996         0.9999
    1440        2802585        14.3950         1.0009         1.0003
    1441        2803053        14.4050         0.9996         0.9998
    1442        2804584        14.4150         0.9988         0.9992
    1443        2811468        14.4250         0.9999         0.9993
    1444        2813667        14.4350         0.9993         0.9996
    1445        2818707        14.4450         0.9997         0.9995
    1446        2822545        14.4550         0.9996         0.9998
    1447        2827367        14.4650         1.0000         0.9997
    1448        2829140        14.4750         0.9992         0.9993
    1449        2832533        14.4850         0.9990         0.9994
    1450        2840303        14.4950         1.0004         0.9999
    1451        2843660        14.5050         1.0002         1.0005
    1452        2849078        14.5150         1.0007         1.0004
    1453        2851242        14.5250         1.0001         1.0001
    1454        2853949        14.5350         0.9997         0.9999
    1455        2859381        14.5450         1.0002         1.0000
    1456        2862645        14.5550         1.0000         0.9999
    1457        2865212        14.5650         0.9995         0.9999
    1458        2871896        14.5750         1.0004         0.9998
    1459        2871912        14.5850         0.9991         0.9997
    1460        2876468        14.5950         0.9993         0.9986
    1461        2876750        14.6050         0.9980         0.9989
    1462        2886992        14.6150         1.0002         0.9997
    1463        2891025        14.6250         1.0002         0.9999
    1464        2890840        14.6350         0.9988         0.9994
    1465        2897798        14.6450         0.9998         0.9996
    1466        2902773        14.6550         1.0002         0.9999
    1467        2903339        14.6650         0.9990         0.9994
    1468        2907691        14.6750         0.9991         0.9991
    1469        2912012        14.6850         0.9993         0.9991
    1470        2915789        14.6950         0.9992         0.9998
    1471        2924857        14.7050         1.0010         1.0001
    1472        2924064        14.7150         0.9993         0.9999
    1473        2928306        14.7250         0.9994         0.9994
    1474        2933209        14.7350         0.9997         0.9995
    1475        2935520        14.7450         0.9992         0.9994
    1476        2941009        14.7550         0.9997         0.9997
    1477        2947562        14.7650         1.0005         1.0005
    1478        2951919        14.7750         1.0007         1.0004
    1479        2951639        14.7850         0.9992         0.9994
    1480        2954401        14.7950         0.9988         0.9990
    1481        2961140        14.8050         0.9997         0.9997
    1482        2966210        14.8150         1.0001         0.9997
    1483        2966466        14.8250         0.9988         0.9994
    1484        2972744        14.8350         0.9996         0.9992
    1485        2975232        14.8450         0.9991         0.9992
    1486        2978987        14.8550         0.9990         0.9990
    1487        2983863        14.8650         0.9993         0.9993
    1488        2988786        14.8750         0.9996         0.9992
    1489        2990575        14.8850         0.9988         0.9994
    1490        2997836        14.8950         0.9999         0.9992
    1491        2998218        14.9050         0.9987         0.9994
    1492        3005131        14.9150         0.9997         0.9993
    1493        3008782        14.9250         0.9995         0.9997
    1494        3013621        14.9350         0.9998         0.9999
    1495        3018165        14.9450         1.0000         0.9996
    1496        3018718        14.9550         0.9988         0.9994
    1497        3025497        14.9650         0.9997         0.9994
    1498        3028813        14.9750         0.9995         0.9995
    1499        3032153        14.9850         0.9993         0.9996
    1500        3039825        14.9950         1.0004         1.0002
    1501        3043571        15.0050         1.0003         1.0003
    1502        3044761        15.0150         0.9994         0.9995
    1503        3047241        15.0250         0.9989         0.9991
    1504        3053090        15.0350         0.9995         0.9991
    1505        3055893        15.0450         0.9991         0.9995
    1506        3063464        15.0550         1.0002         0.9998
    1507        3066236        15.0650         0.9998         1.0000
    1508        3069619        15.0750         0.9996         0.9994
    1509        3072166        15.0850         0.9991         0.9992
    1510        3077372        15.0950         0.9994         0.9995
    1511        3083929        15.1050         1.0002         1.0000
    1512        3087526        15.1150         1.0001         1.0003
    1513        3092088        15.1250         1.0002         0.9999
    1514        3093067        15.1350         0.9992         0.9995
    1515        3097139        15.1450         0.9992         0.9991
    1516        3101669        15.1550         0.9994         0.9994
    1517        3107393        15.1650         0.9999         0.9998
    1518        3111790        15.1750         1.0000         1.0000
    1519        3115453        15.1850         0.9998         0.9997
    1520        3118015        15.1950         0.9993         0.9995
    1521        3122752        15.2050         0.9995         0.9995
    1522        3127462        15.2150         0.9997         0.9996
    1523        3130326        15.2250         0.9993         0.9996
    1524        3136368        15.2350         1.0000         0.9998
    1525        3141638        15.2450         1.0003         1.0004
    1526        3146647        15.2550         1.0006         1.0004
    1527        3148790        15.2650         1.0000         1.0001
    1528        3152138        15.2750         0.9997         0.9997
    1529        3155613        15.2850         0.9995         0.9996
    1530        3160401        15.2950         0.9997         0.9996
    1531        3164104        15.3050         0.9996         0.9995
    1532        3167254        15.3150         0.9993         0.9996
    1533        3174867        15.3250         1.0004         1.0001
    1534        3179218        15.3350         1.0004         1.0005
    1535        3182275        15.3450         1.0001         1.0002
    1536        3185573        15.3550         0.9998         0.9994
    1537        3185643        15.3650         0.9986         0.9994
    1538        3195557        15.3750         1.0004         0.9997
    1539        3197635        15.3850         0.9997         0.9997
    1540        3199349        15.3950         0.9989         0.9994
    1541        3207244        15.4050         1.0001         0.9998
    1542        3212548        15.4150         1.0005         1.0006
    1543        3216968        15.4250         1.0005         1.0002
    1544        3217463        15.4350         0.9994         0.9998
    1545        3223048        15.4450         0.9998         0.9997
    1546        3227797        15.4550         1.0000         0.9998
    1547        3229459        15.4650         0.9992         0.9994
    1548        3234520        15.4750         0.9995         0.9996
    1549        3241581        15.4850         1.0004         1.0000
    1550        3244043        15.4950         0.9999         1.0002
    1551        3249704        15.5050         1.0003         1.0002
    1552        3254310        15.5150         1.0004         1.0004
    1553        3257309        15.5250         1.0001         1.0000
    1554        3259416        15.5350         0.9994         0.9996
    1555        3264688        15.5450         0.9998         0.9998
    1556        3270688        15.5550         1.0003         1.0002
    1557        3274922        15.5650         1.0003         1.0004
    1558        3278852        15.5750         1.0002         1.0001
    1559        3281365        15.5850         0.9997         0.9999
    1560        3286173        15.5950         0.9999         0.9997
    1561        3290116        15.6050         0.9998         1.0001
    1562        3296790        15.6150         1.0006         1.0002
    1563        3299118        15.6250         1.0000         1.0003
    1564        3303219        15.6350         1.0000         0.9996
    1565        3305099        15.6450         0.9992         0.9999
    1566        3313977        15.6550         1.0006         0.9998
    1567        3313983        15.6650         0.9994         1.0002
    1568        3321869        15.6750         1.0005         1.0000
    1569        3324269        15.6850         0.9999         1.0000
    1570        3327634        15.6950         0.9997         1.0000
    1571        3335460        15.7050         1.0007         1.0003
    1572        3338074        15.7150         1.0002         1.0006
    1573        3342906        15.7250         1.0004         0.9999
    1574        3342603        15.7350         0.9991         0.9996
    1575        3349766        15.7450         0.9999         0.9999
    1576        3356619        15.7550         1.0007         1.0003
    1577        3358253        15.7650         0.9999         1.0004
    1578        3364313        15.7750         1.0005         1.0001
    1579        3366283        15.7850         0.9998         1.0001
    1580        3370746        15.7950         0.9998         0.9994
    1581        3372404        15.8050         0.9991         0.9999
    1582        3383076        15.8150         1.0009         0.9999
    1583        3381720        15.8250         0.9993         1.0001
    1584        3388689        15.8350         1.0001         0.9998
    1585        3393211        15.8450         1.0001         1.0000
    1586        3395578        15.8550         0.9996         1.0000
    1587        3403177        15.8650         1.0006         1.0001
    1588        3405455        15.8750         1.0000         1.0003
    1589        3410349        15.8850         1.0001         0.9998
    1590        3412540        15.8950         0.9995         0.9999
    1591        3419159        15.9050         1.0002         1.0000
    1592        3424024        15.9150         1.0004         1.0004
    1593        3428646        15.9250         1.0005         1.0004
    1594        3432696        15.9350         1.0004         1.0005
    1595        3438006        15.9450         1.0007         1.0007
    1596        3442821        15.9550         1.0008         1.0006
    1597        3444052        15.9650         0.9999         1.0001
    1598        3448299        15.9750         0.9999         1.0001
    1599        3455199        15.9850         1.0007         1.0004
    1600        3458321        15.9950         1.0003         1.0005
    1601        3463232        16.0050         1.0005         1.0004
    1602        3468029        16.0150         1.0006         1.0006
    1603        3472041        16.0250         1.0005         1.0006
    1604        3476793        16.0350         1.0006         1.0006
    1605        3481483        16.0450         1.0007         1.0007
    1606        3485180        16.0550         1.0006         1.0007
    1607        3490665        16.0650         1.0009         1.0007
    1608        3493220        16.0750         1.0004         1.0004
    1609        3495433        16.0850         0.9998         1.0000
    1610        3500698        16.0950         1.0000         0.9997
    1611        3503816        16.1050         0.9997         1.0000
    1612        3511003        16.1150         1.0005         1.0002
    1613        3514671        16.1250         1.0003         1.0003
    1614        3517969        16.1350         1.0000         1.0002
    1615        3523234        16.1450         1.0002         0.9998
    1616        3524721        16.1550         0.9994         1.0004
    1617        3536124        16.1650         1.0014         1.0001
    1618        3531618        16.1750         0.9989         0.9999
    1619        3540489        16.1850         1.0002         1.0001
    1620        3549176        16.1950         1.0014         1.0008
    1621        3548964        16.2050         1.0001         1.0007
    1622        3555814        16.2150         1.0008         1.0005
    1623        3559358        16.2250         1.0006         1.0004
    1624        3559947        16.2350         0.9995         0.9999
    1625        3566276        16.2450         1.0000         0.9998
    1626        3570941        16.2550         1.0001         1.0001
    1627        3574842        16.2650         1.0000         1.0000
    1628        3580309        16.2750         1.0003         1.0005
    1629        3586613        16.2850         1.0008         1.0001
    1630        3584395        16.2950         0.9990         0.9997
    1631        3592455        16.3050         1.0000         0.9997
    1632        3598425        16.3150         1.0004         1.0003
    1633        3601330        16.3250         1.0000         1.0002
    1634        3606501        16.3350         1.0002         0.9999
    1635        3610019        16.3450         0.9999         1.0004
    1636        3618559        16.3550         1.0011         1.0005
    1637        3619378        16.3650         1.0001         1.0004
    1638        3623085        16.3750         0.9999         0.9998
    1639        3626810        16.3850         0.9997         0.9999
    1640        3632806        16.3950         1.0001         1.0000
    1641        3636824        16.4050         1.0000         1.0001
    1642        3641667        16.4150         1.0001         1.0000
    1643        3645401        16.4250         0.9999         1.0000
    1644        3650101        16.4350         1.0000         1.0003
    1645        3657095        16.4450         1.0007         1.0002
    1646        3657325        16.4550         0.9996         1.0002
    1647        3664474        16.4650         1.0003         0.9997
    1648        3665241        16.4750         0.9993         0.9996
    1649        3670538        16.4850         0.9995         0.9995
    1650        3677112        16.4950         1.0001         1.0000
    1651        3681815        16.5050         1.0002         1.0003
    1652        3687072        16.5150         1.0004         1.0000
    1653        3687527        16.5250         0.9993         0.9996
    1654        3693474        16.5350         0.9997         0.9996
    1655        3700108        16.5450         1.0003         1.0002
    1656        3704608        16.5550         1.0003         1.0003
    1657        3707500        16.5650         0.9999         0.9997
    1658        3709087        16.5750         0.9991         0.9993
    1659        3714900        16.5850         0.9994         0.9995
    1660        3722157        16.5950         1.0002         0.9999
    1661        3724768        16.6050         0.9997         1.0000
    1662        3730490        16.6150         1.0000         0.9999
    1663        3734973        16.6250         1.0000         1.0001
    1664        3739250        16.6350         0.9999         0.9996
    1665        3740627        16.6450         0.9991         0.9997
    1666        3750619        16.6550         1.0006         1.0000
    1667        3753627        16.6650         1.0002         1.0006
    1668        3759203        16.6750         1.0005         1.0000
    1669        3759960        16.6850         0.9995         0.9999
    1670        3767121        16.6950         1.0002         1.0001
    1671        3772826        16.7050         1.0005         1.0002
    1672        3773574        16.7150         0.9995         1.0000
    1673        3779872        16.7250         1.0000         0.9994
    1674        3780647        16.7350         0.9990         0.9996
    1675        3789813        16.7450         1.0002         0.9998
    1676        3793785        16.7550         1.0001         0.9999
    1677        3795170        16.7650         0.9992         0.9996
    1678        3802587        16.7750         1.0000         0.9998
    1679        3808418        16.7850         1.0003         1.0001
    1680        3811321        16.7950         0.9999         1.0001
    1681        3817643        16.8050         1.0004         1.0003
    1682        3823283        16.8150         1.0006         1.0004
    1683        3824821        16.8250         0.9999         1.0001
    1684        3829289        16.8350         0.9998         0.9997
    1685        3832732        16.8450         0.9996         0.9996
    1686        3837330        16.8550         0.9996         0.9996
    1687        3842949        16.8650         0.9998         0.9996
    1688        3845802        16.8750         0.9994         0.9998
    1689        3853793        16.8850         1.0003         0.9998
    1690        3855232        16.8950         0.9995         0.9999
    1691        3861818        16.9050         1.0000         0.9997
    1692        3864600        16.9150         0.9995         0.9997
    1693        3868860        16.9250         0.9995         0.9994
    1694        3874400        16.9350         0.9997         0.9999
    1695        3882090        16.9450         1.0005         1.0001
    1696        3883751        16.9550         0.9998         1.0000
    1697        3888235        16.9650         0.9997         0.9996
    1698        3892613        16.9750         0.9997         0.9998
    1699        3898205        16.9850         0.9999         0.9997
    1700        3901523        16.9950         0.9996         0.9998
    1701        3907950        17.0050         1.0001         1.0003
    1702        3915319        17.0150         1.0008         1.0001
    1703        3913053        17.0250         0.9990         0.9998
    1704        3921972        17.0350         1.0001         0.9998
    1705        3927294        17.0450         1.0003         1.0002
    1706        3930182        17.0550         0.9999         1.0001
    1707        3934969        17.0650         0.9999         0.9997
    1708        3937975        17.0750         0.9995         0.9997
    1709        3944519        17.0850         1.0000         0.9999
    1710        3950137        17.0950         1.0003         1.0005
    1711        3957163        17.1050         1.0009         1.0004
    1712        3957529        17.1150         0.9998         1.0002
    1713        3962937        17.1250         1.0000         0.9997
    1714        3965982        17.1350         0.9996         0.9999
    1715        3972308        17.1450         1.0000         0.9996
    1716        3973458        17.1550         0.9991         0.9996
    1717        3979884        17.1650         0.9996         0.9991
    1718        3982063        17.1750         0.9990         0.9997
    1719        3993895        17.1850         1.0008         0.9998
    1720        3993162        17.1950         0.9994         1.0004
    1721        4003748        17.2050         1.0009         1.0001
    1722        4003297        17.2150         0.9996         1.0001
    1723        4008140        17.2250         0.9997         0.9995
    1724        4011988        17.2350         0.9995         0.9994
    1725        4016688        17.2450         0.9995         0.9999
    1726        4026576        17.2550         1.0008         1.0002
    1727        4027564        17.2650         0.9999         1.0002
    1728        4032093        17.2750         0.9998         1.0000
    1729        4038911        17.2850         1.0004         1.0000
    1730        4040222        17.2950         0.9995         0.9997
    1731        4044258        17.3050         0.9994         0.9996
    1732        4052445        17.3150         1.0003         1.0001
    1733        4058053        17.3250         1.0005         1.0004
    1734        4061600        17.3350         1.0002         1.0004
    1735        4067480        17.3450         1.0005         1.0005
    1736        4072372        17.3550         1.0005         1.0003
    1737        4073708        17.3650         0.9997         1.0002
    1738        4081598        17.3750         1.0005         0.9999
    1739        4081725        17.3850         0.9994         0.9998
    1740        4088567        17.3950         0.9999         0.9998
    1741        4094782        17.4050         1.0003         1.0003
    1742        4098925        17.4150         1.0001         0.9999
    1743        4100332        17.4250         0.9993         0.9999
    1744        4109942        17.4350         1.0005         1.0001
    1745        4112724        17.4450         1.0001         1.0002
    1746        4116185        17.4550         0.9998         0.9997
    1747        4121281        17.4650         0.9998         1.0002
    1748        4130898        17.4750         1.0010         1.0004
    1749        4130838        17.4850         0.9999         1.0003
    1750        4135681        17.4950         0.9999         0.9999
    1751        4141178        17.5050         1.0001         1.0000
    1752        4144860        17.5150         0.9998         0.9998
    1753        4147619        17.5250         0.9994         0.9993
    1754        4150863        17.5350         0.9990         0.9992
    1755        4158264        17.5450         0.9996         0.9995
    1756        4163896        17.5550         0.9999         0.9998
    1757        4168509        17.5650         0.9998         1.0000
    1758        4174170        17.5750         1.0000         0.9997
    1759        4175782        17.5850         0.9993         0.9996
    1760        4183149        17.5950         0.9999         0.9999
    1761        4190366        17.6050         1.0005         1.0000
    1762        4190071        17.6150         0.9993         0.9998
    1763        4197894        17.6250         1.0000         0.9999
    1764        4205362        17.6350         1.0007         1.0005
    1765        4209000        17.6450         1.0004         1.0003
    1766        4211426        17.6550         0.9998         1.0002
    1767        4220260        17.6650         1.0008         1.0006
    1768        4224916        17.6750         1.0008         1.0005
    1769        4224484        17.6850         0.9995         1.0000
    1770        4230897        17.6950         0.9999         0.9997
    1771        4235532        17.7050         0.9999         1.0001
    1772        4242912        17.7150         1.0005         1.0002
    1773        4245523        17.7250         1.0000         1.0003
    1774        4251534        17.7350         1.0003         1.0001
    1775        4256291        17.7450         1.0003         1.0006
    1776        4263109        17.7550         1.0007         1.0001
    1777        4261277        17.7650         0.9992         1.0001
    1778        4273163        17.7750         1.0008         1.0002
    1779        4276545        17.7850         1.0005         1.0007
    1780        4280273        17.7950         1.0003         1.0003
    1781        4284465        17.8050         1.0001         0.9998
    1782        4285171        17.8150         0.9992         0.9997
    1783        4293450        17.8250         1.0000         0.9994
    1784        4294862        17.8350         0.9992         0.9998
    1785        4305178        17.8450         1.0005         0.9998
    1786        4306877        17.8550         0.9997         1.0002
    1787        4315205        17.8650         1.0005         1.0003
    1788        4319612        17.8750         1.0004         1.0002
    1789        4320306        17.8850         0.9995         0.9999
    1790        4327352        17.8950         1.0000         0.9996
    1791        4330008        17.9050         0.9995         0.9997
    1792        4336282        17.9150         0.9998         0.9999
    1793        4344211        17.9250         1.0005         1.0002
    1794        4345737        17.9350         0.9998         0.9999
    1795        4349019        17.9450         0.9994         0.9995
    1796        4354484        17.9550         0.9995         0.9994
    1797        4359591        17.9650         0.9996         0.9998
    1798        4367071        17.9750         1.0002         0.9999
    1799        4369670        17.9850         0.9997         1.0000
    1800        4375703        17.9950         1.0000         0.9998
    1801        4379736        18.0050         0.9998         1.0000
    1802        4386214        18.0150         1.0001         0.9999
    1803        4388806        18.0250         0.9996         0.9998
    1804        4393544        18.0350         0.9996         0.9996
    1805        4399409        18.0450         0.9998         0.9995
    1806        4402195        18.0550         0.9993         0.9998
    1807        4411584        18.0650         1.0004         0.9998
    1808        4412309        18.0750         0.9994         0.9998
    1809        4418884        18.0850         0.9998         0.9996
    1810        4424167        18.0950         0.9999         1.0002
    1811        4432059        18.1050         1.0006         0.9999
    1812        4430516        18.1150         0.9991         1.0001
    1813        4442920        18.1250         1.0008         0.9997
    1814        4440091        18.1350         0.9991         1.0001
    1815        4451907        18.1450         1.0006         0.9998
    1816        4452408        18.1550         0.9996         0.9999
    1817        4457815        18.1650         0.9997         1.0001
    1818        4469089        18.1750         1.0012         1.0006
    1819        4469944        18.1850         1.0003         1.0007
    1820        4476161        18.1950         1.0006         1.0002
    1821        4478967        18.2050         1.0001         1.0003
    1822        4485970        18.2150         1.0005         1.0005
    1823        4492096        18.2250         1.0008         1.0005
    1824        4492473        18.2350         0.9998         1.0000
    1825        4497347        18.2450         0.9998         1.0000
    1826        4505639        18.2550         1.0005         1.0000
    1827        4505133        18.2650         0.9993         0.9997
    1828        4512203        18.2750         0.9998         0.9999
    1829        4521270        18.2850         1.0007         1.0004
    1830        4523701        18.2950         1.0002         1.0003
    1831        4527548        18.3050         0.9999         0.9998
    1832        4530699        18.3150         0.9995         0.9997
    1833        4537285        18.3250         0.9999         0.9998
    1834        4542163        18.3350         0.9999         0.9997
    1835        4544198        18.3450         0.9992         0.9996
    1836        4552734        18.3550         1.0000         0.9998
    1837        4556971        18.3650         0.9998         0.9997
    1838        4559217        18.3750         0.9992         0.9997
    1839        4569042        18.3850         1.0003         0.9999
    1840        4572495        18.3950         1.0000         1.0000
    1841        4576421        18.4050         0.9998         1.0001
    1842        4584496        18.4150         1.0004         0.9997
    1843        4582470        18.4250         0.9989         0.9996
    1844        4592770        18.4350         1.0001         0.9997
    1845        4598177        18.4450         1.0002         1.0001
    1846        4601871        18.4550         0.9999         1.0004
    1847        4612373        18.4650         1.0011         1.0004
    1848        4611406        18.4750         0.9998         1.0003
    1849        4617395        18.4850         1.0000         0.9998
    1850        4621524        18.4950         0.9998         0.9999
    1851        4627772        18.5050         1.0001         1.0000
    1852        4632662        18.5150         1.0000         1.0002
    1853        4639292        18.5250         1.0004         1.0003
    1854        4643640        18.5350         1.0003         1.0002
    1855        4646640        18.5450         0.9998         1.0000
    1856        4653160        18.5550         1.0001         1.0002
    1857        4658118        18.5650         1.0001         0.9996
    1858        4656162        18.5750         0.9986         0.9995
    1859        4669297        18.5850         1.0004         0.9996
    1860        4670130        18.5950         0.9995         0.9999
    1861        4675608        18.6050         0.9996         0.9995
    1862        4681714        18.6150         0.9998         0.9998
    1863        4688010        18.6250         1.0001         1.0000
    1864        4693475        18.6350         1.0002         1.0004
    1865        4700933        18.6450         1.0007         1.0002
    1866        4700938        18.6550         0.9996         1.0000
    1867        4708823        18.6650         1.0002         1.0003
    1868        4716159        18.6750         1.0007         0.9999
    1869        4710597        18.6850         0.9985         0.9995
    1870        4723751        18.6950         1.0002         0.9994
    1871        4727864        18.7050         1.0000         1.0004
    1872        4736760        18.7150         1.0008         1.0004
    1873        4739494        18.7250         1.0003         1.0005
    1874        4744244        18.7350         1.0002         1.0001
    1875        4746867        18.7450         0.9997         0.9998
    1876        4752182        18.7550         0.9998         0.9999
    1877        4760818        18.7650         1.0005         1.0005
    1878        4766861        18.7750         1.0007         1.0005
    1879        4767009        18.7850         0.9997         0.9996
    1880        4768757        18.7950         0.9990         0.9995
    1881        4781428        18.8050         1.0006         0.9999
    1882        4783118        18.8150         0.9999         1.0001
    1883        4787716        18.8250         0.9998         0.9999
    1884        4794553        18.8350         1.0001         0.9999
    1885        4797758        18.8450         0.9997         0.9998
    1886        4802588        18.8550         0.9997         0.9996
    1887        4807943        18.8650         0.9997         0.9998
    1888        4814413        18.8750         1.0000         0.9999
    1889        4818760        18.8850         0.9999         1.0001
    1890        4825194        18.8950         1.0001         0.9999
    1891        4827205        18.9050         0.9995         0.9994
    1892        4828853        18.9150         0.9988         0.9991
    1893        4838131        18.9250         0.9996         0.9994
    1894        4845172        18.9350         1.0000         1.0001
    1895        4852112        18.9450         1.0004         1.0002
    1896        4855905        18.9550         1.0001         1.0004
    1897        4863290        18.9650         1.0006         1.0002
    1898        4864410        18.9750         0.9998         1.0001
    1899        4870774        18.9850         1.0000         0.9999
    1900        4875798        18.9950         1.0000         1.0002
    1901        4882709        19.0050         1.0004         1.0001
    1902        4884171        19.0150         0.9996         0.9998
    1903        4889839        19.0250         0.9997         0.9997
    1904        4897032        19.0350         1.0002         1.0002
    1905        4904212        19.0450         1.0006         1.0003
    1906        4906359        19.0550         1.0000         1.0003
    1907        4914646        19.0650         1.0006         1.0004
    1908        4919097        19.0750         1.0004         1.0003
    1909        4920893        19.0850         0.9998         1.0002
    1910        4929158        19.0950         1.0004         0.9998
    1911        4927912        19.1050         0.9991         0.9997
    1912        4937708        19.1150         1.0000         1.0000
    1913        4946670        19.1250         1.0008         1.0004
    1914        4946560        19.1350         0.9997         1.0001
    1915        4951812        19.1450         0.9998         0.9997
    1916        4958287        19.1550         1.0000         0.9999
    1917        4963686        19.1650         1.0001         1.0003
    1918        4971388        19.1750         1.0006         1.0003
    1919        4973344        19.1850         0.9999         1.0000
    1920        4976566        19.1950         0.9995         0.9994
    1921        4980649        19.2050         0.9993         0.9996
    1922        4990991        19.2150         1.0003         0.9999
    1923        4993680        19.2250         0.9998         1.0000
    1924        4998422        19.2350         0.9997         0.9998
    1925        5004458        19.2450         0.9999         0.9997
    1926        5007589        19.2550         0.9995         0.9997
    1927        5014413        19.2650         0.9998         0.9998
    1928        5021729        19.2750         1.0002         1.0001
    1929        5025770        19.2850         1.0000         1.0001
    1930        5031205        19.2950         1.0000         0.9999
    1931        5034350        19.3050         0.9996         0.9997
    1932        5040114        19.3150         0.9997         0.9998
    1933        5047031        19.3250         1.0001         0.9998
    1934        5049997        19.3350         0.9996         0.9999
    1935        5057599        19.3450         1.0001         1.0001
    1936        5064876        19.3550         1.0005         1.0005
    1937        5069241        19.3650         1.0003         1.0001
    1938        5070511        19.3750         0.9996         1.0001
    1939        5082049        19.3850         1.0008         1.0002
    1940        5082942        19.3950         0.9999         1.0001
    1941        5085027        19.4050         0.9993         0.9995
    1942        5092337        19.4150         0.9997         0.9997
    1943        5100232        19.4250         1.0002         1.0001
    1944        5105549        19.4350         1.0003         1.0004
    1945        5112473        19.4450         1.0006         1.0003
    1946        5114885        19.4550         1.0000         1.0004
    1947        5123572        19.4650         1.0007         1.0004
    1948        5125720        19.4750         1.0001         1.0001
    1949        5128255        19.4850         0.9996         0.9999
    1950        5137983        19.4950         1.0004         1.0000
    1951        5140947        19.5050         1.0000         1.0001
    1952        5145665        19.5150         0.9999         0.9999
    1953        5150593        19.5250         0.9998         0.9997
    1954        5154903        19.5350         0.9996         0.9997
    1955        5161180        19.5450         0.9998         0.9998
    1956        5166661        19.5550         0.9998         0.9998
    1957        5171613        19.5650         0.9998         0.9999
    1958        5178009        19.5750         1.0000         0.9998
    1959        5181228        19.5850         0.9996         0.9996
    1960        5186240        19.5950         0.9995         0.9997
    1961        5195158        19.6050         1.0002         1.0001
    1962        5200174        19.6150         1.0002         1.0001
    1963        5202082        19.6250         0.9995         0.9998
    1964        5208841        19.6350         0.9998         0.9996
    1965        5212311        19.6450         0.9995         0.9995
    1966        5217279        19.6550         0.9994         0.9995
    1967        5225570        19.6650         1.0000         1.0000
    1968        5234140        19.6750         1.0006         1.0004
    1969        5236015        19.6850         0.9999         0.9999
    1970        5238316        19.6950         0.9994         0.9997
    1971        5248401        19.7050         1.0003         0.9998
    1972        5251326        19.7150         0.9998         1.0001
    1973        5259211        19.7250         1.0003         1.0000
    1974        5263324        19.7350         1.0001         1.0004
    1975        5272162        19.7450         1.0007         1.0003
    1976        5274003        19.7550         1.0001         1.0004
    1977        5281296        19.7650         1.0004         1.0003
    1978        5285444        19.7750         1.0002         1.0000
    1979        5286329        19.7850         0.9994         0.9998
    1980        5295577        19.7950         1.0001         0.9998
    1981        5299890        19.8050         0.9999         0.9998
    1982        5303598        19.8150         0.9996         0.9999
    1983        5314024        19.8250         1.0005         1.0002
    1984        5317851        19.8350         1.0003         1.0004
    1985        5322778        19.8450         1.0002         1.0001
    1986        5326334        19.8550         0.9998         0.9998
    1987        5330224        19.8650         0.9996         1.0000
    1988        5340774        19.8750         1.0005         0.9998
    1989        5338426        19.8850         0.9991         0.9998
    1990        5349444        19.8950         1.0001         0.9996
    1991        5352776        19.9050         0.9998         1.0001
    1992        5361536        19.9150         1.0004         1.0002
    1993        5366107        19.9250         1.0002         1.0003
    1994        5371079        19.9350         1.0002         1.0001
    1995        5375415        19.9450         1.0000         1.0000
    1996        5380826        19.9550         1.0000         1.0000
    1997        5386838        19.9650         1.0001         0.9998
    1998        5388393        19.9750         0.9994         0.9997
    1999        5395759        19.9850         0.9997         0.9994
    2000        5398325        19.9950         0.9992         0.9995
    2001        5407823        20.0050         1.0000         0.9998
    2002        5414938        20.0150         1.0003         1.0002
    2003        5418715        20.0250         1.0000         1.0002
    2004        5425349        20.0350         1.0002         1.0001
    2005        5429304        20.0450         0.9999         0.9999
    2006        5434136        20.0550         0.9998         1.0001
    2007        5444832        20.0650         1.0008         1.0005
    2008        5448625        20.0750         1.0005         1.0005
    2009        5451634        20.0850         1.0000         1.0003
    2010        5458951        20.0950         1.0004         1.0000
    2011        5457766        20.1050         0.9992         0.9994
    2012        5461961        20.1150         0.9990         0.9991
    2013        5470465        20.1250         0.9995         0.9993
    2014        5475394        20.1350         0.9994         0.9995
    2015        5481154        20.1450         0.9995         0.9996
    2016        5490447        20.1550         1.0002         1.0001
    2017        5497345        20.1650         1.0004         1.0004
    2018        5501804        20.1750         1.0003         1.0003
    2019        5506310        20.1850         1.0001         1.0001
    2020        5511661        20.1950         1.0001         1.0002
    2021        5517814        20.2050         1.0002         1.0000
    2022        5519422        20.2150         0.9995         0.9998
    2023        5526943        20.2250         0.9999         0.9997
    2024        5532209        20.2350         0.9998         0.9999
    2025        5538602        20.2450         1.0000         1.0002
    2026        5547305        20.2550         1.0006         1.0002
    2027        5548308        20.2650         0.9998         1.0001
    2028        5555361        20.2750         1.0001         1.0000
    2029        5561699        20.2850         1.0002         1.0003
    2030        5567358        20.2950         1.0003         1.0001
    2031        5568848        20.3050         0.9995         0.9998
    2032        5574883        20.3150         0.9996         0.9993
    2033        5577980        20.3250         0.9992         0.9997
    2034        5590125        20.3350         1.0004         0.9999
    2035        5593368        20.3450         1.0000         1.0005
    2036        5601623        20.3550         1.0005         0.9998
    2037        5598744        20.3650         0.9990         0.9999
    2038        5613221        20.3750         1.0006         0.9999
    2039        5615156        20.3850         1.0000         1.0004
    2040        5622847        20.3950         1.0003         1.0002
    2041        5628152        20.4050         1.0003         1.0003
    2042        5632473        20.4150         1.0001         1.0001
    2043        5637161        20.4250         0.9999         1.0001
    2044        5644027        20.4350         1.0002         0.9999
    2045        5646813        20.4450         0.9997         1.0001
    2046        5657625        20.4550         1.0006         1.0002
    2047        5660765        20.4650         1.0002         1.0005
    2048        5668414        20.4750         1.0006         1.0005
    2049        5673662        20.4850         1.0005         1.0005
    2050        5677132        20.4950         1.0002         1.0002
    2051        5681251        20.5050         0.9999         0.9999
    2052        5687980        20.5150         1.0001         1.0004
    2053        5698401        20.5250         1.0010         1.0004
    2054        5695927        20.5350         0.9996         1.0000
    2055        5703096        20.5450         0.9999         0.9998
    2056        5711370        20.5550         1.0003         1.0002
    2057        5716872        20.5650         1.0003         1.0005
    2058        5725808        20.5750         1.0009         1.0008
    2059        5729548        20.5850         1.0006         1.0004
    2060        5728721        20.5950         0.9995         1.0000
    2061        5739153        20.6050         1.0003         1.0000
    2062        5744563        20.6150         1.0003         1.0003
    2063        5747708        20.6250         0.9999         1.0000
    2064        5753986        20.6350         1.0000         0.9998
    2065        5757891        20.6450         0.9997         0.9998
    2066        5765365        20.6550         1.0000         1.0001
    2067        5773209        20.6650         1.0004         1.0003
    2068        5777038        20.6750         1.0001         1.0003
    2069        5782807        20.6850         1.0002         1.0000
    2070        5786064        20.6950         0.9997         0.9999
    2071        5793644        20.7050         1.0001         1.0001
    2072        5802071        20.7150         1.0006         1.0004
    2073        5805959        20.7250         1.0003         1.0004
    2074        5811422        20.7350         1.0003         1.0003
    2075        5817365        20.7450         1.0003         1.0002
    2076        5821026        20.7550         1.0000         1.0001
    2077        5826554        20.7650         1.0000         0.9999
    2078        5831983        20.7750         0.9999         1.0000
    2079        5837538        20.7850         0.9999         0.9998
    2080        5839162        20.7950         0.9992         0.9993
    2081        5844388        20.8050         0.9992         0.9993
    2082        5854696        20.8150         1.0000         0.9998
    2083        5860140        20.8250         0.9999         0.9998
    2084        5861797        20.8350         0.9993         0.9997
    2085        5872158        20.8450         1.0001         0.9997
    2086        5876594        20.8550         0.9999         1.0000
    2087        5882984        20.8650         1.0000         1.0002
    2088        5892662        20.8750         1.0007         1.0004
    2089        5894902        20.8850         1.0001         1.0003
    2090        5900225        20.8950         1.0001         1.0000
    2091        5905890        20.9050         1.0001         1.0001
    2092        5910987        20.9150         1.0000         0.9998
    2093        5913014        20.9250         0.9993         0.9996
    2094        5920750        20.9350         0.9997         0.9995
    2095        5924727        20.9450         0.9994         0.9995
    2096        5930791        20.9550         0.9995         0.9994
    2097        5936317        20.9650         0.9995         0.9998
    2098        5947547        20.9750         1.0004         1.0000
    2099        5949900        20.9850         0.9998         1.0002
    2100        5958397        20.9950         1.0003         1.0000
    2101        5961353        21.0050         0.9999         1.0000
    2102        5967329        21.0150         0.9999         0.9998
    2103        5971806        21.0250         0.9997         0.9999
    2104        5979082        21.0350         1.0000         0.9995
    2105        5979264        21.0450         0.9991         0.9997
    2106        5992790        21.0550         1.0004         0.9999
    2107        5996083        21.0650         1.0000         1.0001
    2108        5999666        21.0750         0.9996         0.9998
    2109        6007485        21.0850         1.0000         0.9997
    2110        6010286        21.0950         0.9995         0.9998
    2111        6019759        21.1050         1.0001         1.0000
    2112        6026386        21.1150         1.0003         1.0001
    2113        6028931        21.1250         0.9997         0.9998
    2114        6035577        21.1350         0.9999         1.0002
    2115        6048632        21.1450         1.0011         1.0006
    2116        6048576        21.1550         1.0002         1.0003
    2117        6050953        21.1650         0.9996         0.9998
    2118        6059828        21.1750         1.0001         1.0001
    2119        6067093        21.1850         1.0004         1.0001
    2120        6067632        21.1950         0.9995         0.9998
    2121        6075264        21.2050         0.9998         1.0000
    2122        6085927        21.2150         1.0006         1.0002
    2123        6085945        21.2250         0.9997         1.0002
    2124        6094892        21.2350         1.0002         1.0001
    2125        6100378        21.2450         1.0002         1.0000
    2126        6102701        21.2550         0.9996         1.0000
    2127        6113695        21.2650         1.0005         1.0002
    2128        6117608        21.2750         1.0002         1.0000
    2129        6118733        21.2850         0.9994         0.9999
    2130        6132326        21.2950         1.0007         1.0003
    2131        6136959        21.3050         1.0005         1.0004
    2132        6137682        21.3150         0.9997         1.0000
    2133        6145308        21.3250         1.0000         0.9998
    2134        6151845        21.3350         1.0001         1.0004
    2135        6162342        21.3450         1.0009         1.0003
    2136        6160690        21.3550         0.9997         1.0004
    2137        6172074        21.3650         1.0006         0.9999
    2138        6170847        21.3750         0.9995         1.0000
    2139        6179165        21.3850         0.9999         0.9997
    2140        6183025        21.3950         0.9996         0.9995
    2141        6185068        21.4050         0.9990         0.9993
    2142        6193693        21.4150         0.9994         0.9990
    2143        6196658        21.4250         0.9990         0.9996
    2144        6212531        21.4350         1.0006         1.0001
    2145        6215827        21.4450         1.0002         1.0002
    2146        6218648        21.4550         0.9997         1.0002
    2147        6231630        21.4650         1.0009         1.0003
    2148        6231582        21.4750         0.9999         1.0004
    2149        6239485        21.4850         1.0003         1.0001
    2150        6243540        21.4950         1.0000         1.0001
    2151        6247544        21.5050         0.9997         0.9995
    2152        6249883        21.5150         0.9991         0.9996
    2153        6262721        21.5250         1.0003         0.9997
    2154        6264972        21.5350         0.9997         1.0001
    2155        6273551        21.5450         1.0001         1.0000
    2156        6279007        21.5550         1.0001         0.9998
    2157        6279885        21.5650         0.9993         0.9999
    2158        6294210        21.5750         1.0006         1.0000
    2159        6295112        21.5850         0.9999         1.0002
    2160        6300452        21.5950         0.9998         0.9997
    2161        6306488        21.6050         0.9998         0.9999
    2162        6314417        21.6150         1.0001         1.0002
    2163        6321195        21.6250         1.0003         1.0001
    2164        6322224        21.6350         0.9995         0.9998
    2165        6329619        21.6450         0.9998         0.9994
    2166        6332981        21.6550         0.9994         0.9998
    2167        6345933        21.6650         1.0005         1.0001
    2168        6349667        21.6750         1.0002         1.0003
    2169        6353530        21.6850         0.9998         0.9999
    2170        6359629        21.6950         0.9999         0.9998
    2171        6365810        21.7050         0.9999         0.9999
    2172        6373431        21.7150         1.0002         1.0003
    2173        6383098        21.7250         1.0008         1.0005
    2174        6385393        21.7350         1.0002         1.0004
    2175        6390701        21.7450         1.0002         1.0002
    2176        6396780        21.7550         1.0002         1.0000
    2177        6398826        21.7650         0.9996         0.9998
    2178        6407438        21.7750         1.0000         0.9999
    2179        6415477        21.7850         1.0004         1.0004
    2180        6422591        21.7950         1.0005         1.0002
    2181        6421923        21.8050         0.9995         1.0000
    2182        6431433        21.8150         1.0001         0.9998
    2183        6435875        21.8250         0.9999         0.9999
    2184        6440425        21.8350         0.9996         0.9996
    2185        6444712        21.8450         0.9994         0.9996
    2186        6454102        21.8550         0.9999         0.9996
    2187        6456394        21.8650         0.9994         0.9996
    2188        6462933        21.8750         0.9995         0.9994
    2189        6470787        21.8850         0.9998         1.0001
    2190        6483076        21.8950         1.0008         1.0002
    2191        6481232        21.9050         0.9996         1.0001
    2192        6489391        21.9150         0.9999         0.9996
    2193        6493167        21.9250         0.9996         0.9999
    2194        6504380        21.9350         1.0004         1.0000
    2195        6507341        21.9450         0.9999         1.0004
    2196        6517529        21.9550         1.0006         1.0002
    2197        6518479        21.9650         0.9998         1.0001
    2198        6525439        21.9750         1.0000         1.0000
    2199        6534040        21.9850         1.0004         1.0002
    2200        6537744        21.9950         1.0000         1.0002
    2201        6544635        22.0050         1.0002         1.0002
    2202        6550204        22.0150         1.0001         0.9999
    2203        6551238        22.0250         0.9994         0.9998
    2204        6563411        22.0350         1.0003         1.0000
    2205        6567582        22.0450         1.0001         1.0001
    2206        6569917        22.0550         0.9995         0.9996
    2207        6575372        22.0650         0.9994         0.9994
    2208        6581604        22.0750         0.9995         0.9995
    2209        6589167        22.0850         0.9997         0.9999
    2210        6599157        22.0950         1.0003         1.0000
    2211        6600707        22.1050         0.9996         0.9999
    2212        6608960        22.1150         1.0000         0.9999
    2213        6617030        22.1250         1.0003         1.0002
    2214        6621889        22.1350         1.0001         1.0004
    2215        6629725        22.1450         1.0004         1.0001
    2216        6630209        22.1550         0.9996         1.0001
    2217        6641630        22.1650         1.0004         1.0000
    2218        6644388        22.1750         0.9999         1.0002
    2219        6651952        22.1850         1.0002         0.9999
    2220        6654113        22.1950         0.9996         0.9998
    2221        6662536        22.2050         0.9999         1.0000
    2222        6671917        22.2150         1.0005         1.0000
    2223        6671086        22.2250         0.9994         0.9999
    2224        6681477        22.2350         1.0001         0.9998
    2225        6686615        22.2450         1.0000         0.9999
    2226        6691521        22.2550         0.9998         1.0000
    2227        6702038        22.2650         1.0005         1.0001
    2228        6704466        22.2750         0.9999         1.0002
    2229        6711527        22.2850         1.0001         0.9998
    2230        6713916        22.2950         0.9995         0.9998
    2231        6723311        22.3050         1.0000         0.9999
    2232        6729785        22.3150         1.0001         1.0001
    2233        6735223        22.3250         1.0000         0.9999
    2234        6738079        22.3350         0.9995         0.9998
    2235        6746802        22.3450         0.9999         0.9997
    2236        6751380        22.3550         0.9997         0.9998
    2237        6758569        22.3650         0.9999         0.9999
    2238        6767196        22.3750         1.0003         1.0003
    2239        6775078        22.3850         1.0005         1.0004
    2240        6777020        22.3950         0.9999         0.9999
    2241        6779164        22.4050         0.9994         0.9998
    2242        6791851        22.4150         1.0003         0.9998
    2243        6791637        22.4250         0.9994         0.9996
    2244        6796900        22.4350         0.9993         0.9996
    2245        6810926        22.4450         1.0005         1.0001
    2246        6814052        22.4550         1.0000         1.0002
    2247        6817952        22.4650         0.9997         0.9998
    2248        6824580        22.4750         0.9998         0.9997
    2249        6830414        22.4850         0.9998         0.9999
    2250        6839574        22.4950         1.0002         1.0002
    2251        6846785        22.5050         1.0004         1.0002
    2252        6849862        22.5150         0.9999         1.0003
    2253        6860266        22.5250         1.0006         1.0003
    2254        6862519        22.5350         1.0000         0.9999
    2255        6863087        22.5450         0.9992         0.9996
    2256        6874425        22.5550         1.0000         0.9995
    2257        6875942        22.5650         0.9993         0.9996
    2258        6884675        22.5750         0.9997         0.9998
    2259        6896117        22.5850         1.0005         1.0001
    2260        6896875        22.5950         0.9997         1.0000
    2261        6903308        22.6050         0.9997         0.9996
    2262        6910956        22.6150         1.0000         1.0002
    2263        6923021        22.6250         1.0008         1.0002
    2264        6920750        22.6350         0.9996         1.0002
    2265        6931810        22.6450         1.0003         1.0001
    2266        6938607        22.6550         1.0004         1.0005
    2267        6944579        22.6650         1.0004         1.0003
    2268        6946664        22.6750         0.9998         0.9999
    2269        6950803        22.6850         0.9995         0.9996
    2270        6958933        22.6950         0.9998         0.9997
    2271        6965604        22.7050         0.9999         0.9998
    2272        6971317        22.7150         0.9998         1.0000
    2273        6980294        22.7250         1.0002         1.0002
    2274        6986527        22.7350         1.0003         1.0001
    2275        6987975        22.7450         0.9996         0.9997
    2276        6994648        22.7550         0.9997         0.9996
    2277        7003182        22.7650         1.0000         1.0001
    2278        7013712        22.7750         1.0006         1.0006
    2279        7021455        22.7850         1.0008         1.0006
    2280        7021059        22.7950         0.9999         1.0002
    2281        7028911        22.8050         1.0002         0.9999
    2282        7033706        22.8150         1.0000         1.0002
    2283        7042450        22.8250         1.0003         1.0000
    2284        7043947        22.8350         0.9997         1.0001
    2285        7054649        22.8450         1.0003         0.9999
    2286        7055578        22.8550         0.9996         0.9999
    2287        7063365        22.8650         0.9998         0.9996
    2288        7068594        22.8750         0.9997         0.9998
    2289        7078040        22.8850         1.0001         0.9999
    2290        7082444        22.8950         0.9999         1.0001
    2291        7089991        22.9050         1.0001         0.9998
    2292        7091200        22.9150         0.9994         0.9997
    2293        7101231        22.9250         0.9999         0.9996
    2294        7105704        22.9350         0.9996         1.0000
    2295        7117162        22.9450         1.0004         1.0002
    2296        7122656        22.9550         1.0003         1.0003
    2297        7126918        22.9650         1.0000         1.0002
    2298        7135479        22.9750         1.0003         1.0003
    2299        7142741        22.9850         1.0005         1.0005
    2300        7147443        22.9950         1.0003         1.0002
    2301        7151124        23.0050         0.9999         1.0002
    2302        7162669        23.0150         1.0007         1.0005
    2303        7168040        23.0250         1.0006         1.0005
    2304        7169927        23.0350         0.9999         1.0001
    2305        7176135        23.0450         0.9999         0.9998
    2306        7179629        23.0550         0.9996         0.9996
    2307        7185602        23.0650         0.9995         0.9996
    2308        7194206        23.0750         0.9999         0.9997
    2309        7200758        23.0850         0.9999         1.0003
    2310        7214054        23.0950         1.0009         1.0002
    2311        7211242        23.1050         0.9996         1.0003
    2312        7224812        23.1150         1.0006         1.0003
    2313        7229255        23.1250         1.0004         1.0003
    2314        7228355        23.1350         0.9994         0.9997
    2315        7237466        23.1450         0.9998         0.9997
    2316        7245755        23.1550         1.0001         0.9999
    2317        7249969        23.1650         0.9998         1.0000
    2318        7258193        23.1750         1.0001         1.0000
    2319        7265053        23.1850         1.0001         1.0002
    2320        7272867        23.1950         1.0004         1.0003
    2321        7278233        23.2050         1.0002         1.0001
    2322        7280495        23.2150         0.9997         1.0001
    2323        7292286        23.2250         1.0004         0.9998
    2324        7289013        23.2350         0.9991         0.9997
    2325        7300122        23.2450         0.9998         0.9994
    2326        7304441        23.2550         0.9995         0.9996
    2327        7312204        23.2650         0.9997         0.9999
    2328        7324040        23.2750         1.0005         1.0002
    2329        7327089        23.2850         1.0000         1.0001
    2330        7329753        23.2950         0.9995         0.9996
    2331        7335241        23.3050         0.9994         0.9995
    2332        7343886        23.3150         0.9998         0.9998
    2333        7353538        23.3250         1.0002         1.0001
    2334        7359468        23.3350         1.0002         1.0001
    2335        7364530        23.3450         1.0000         1.0001
    2336        7373666        23.3550         1.0004         1.0002
    2337        7378452        23.3650         1.0002         1.0003
    2338        7382634        23.3750         0.9999         0.9999
